Timestamp,F3 Value,F3 Quality,FC5 Value,FC5 Quality,F7 Value,F7 Quality,T7 Value,T7 Quality,P7 Value,P7 Quality,O1 Value,O1 Quality,O2 Value,O2 Quality,P8 Value,P8 Quality,T8 Value,T8 Quality,F8 Value,F8 Quality,AF4 Value,AF4 Quality,FC6 Value,FC6 Quality,F4 Value,F4 Quality,AF3 Value,AF3 Quality,X Value,Y Value,Z Value
2017-07-31 18:53:40.240502,4600.81818136,0,4247.93939351,0,4009.93939354,0,4019.21212081,0,4406.09090865,0,4089.27272686,0,4319.0303026,0,4443.69696925,0,5127.81818131,0,4319.0303026,0,4548.78787833,0,4242.27272685,0,4936.18181769,0,4537.454545,0,42.0,42.0,?
2017-07-31 18:53:40.241675,4570.42424197,0,4191.78787837,0,4073.81818141,0,4011.9999996,0,4288.63636321,0,5419.39393885,0,4327.27272684,0,4445.75757531,0,5099.48484797,0,4341.18181775,0,4523.03030258,0,4231.45454503,0,4902.18181769,0,4548.27272682,0,42.0,42.0,?
2017-07-31 18:53:40.241986,4570.42424197,0,4191.78787837,0,4073.81818141,0,4011.9999996,0,4288.63636321,0,5419.39393885,0,4327.27272684,0,4445.75757531,0,5099.48484797,0,4341.18181775,0,4523.03030258,0,4231.45454503,0,4902.18181769,0,4548.27272682,0,42.0,42.0,?
2017-07-31 18:53:40.242042,4548.27272682,0,4266.48484806,0,4002.72727233,0,3911.54545415,0,4308.7272723,0,5344.69696916,0,4223.7272723,0,4343.24242381,0,4995.42424192,0,4255.66666624,0,4432.87878744,0,4235.57575715,0,4849.12121164,0,4477.69696925,0,42.0,42.0,?
2017-07-31 18:53:40.242151,4548.27272682,0,4266.48484806,0,4002.72727233,0,3911.54545415,0,4308.7272723,0,5344.69696916,0,4223.7272723,0,4343.24242381,0,4995.42424192,0,4255.66666624,0,4432.87878744,0,4235.57575715,0,4849.12121164,0,4477.69696925,0,42.0,42.0,?
2017-07-31 18:53:40.246382,4554.454545,0,4271.63636321,0,4011.9999996,0,3925.96969658,0,4327.27272684,0,5355.51515098,0,4242.78787836,0,4360.75757532,0,5019.12121162,0,4275.75757533,0,4445.75757531,0,4236.09090867,0,4856.84848436,0,4483.36363592,0,42.0,42.0,?
2017-07-31 18:53:40.249629,4556.51515106,0,4251.03030261,0,3979.03030263,0,3930.0909087,0,4323.66666623,0,5354.99999946,0,4242.27272685,0,4358.18181775,0,5012.93939344,0,4269.06060563,0,4448.8484844,0,4227.33333291,0,4854.7878783,0,4495.21212076,0,42.0,42.0,?
2017-07-31 18:53:40.254005,4551.87878742,0,4245.36363594,0,3998.09090869,0,3952.24242385,0,4331.39393896,0,5369.42424189,0,4251.54545412,0,4370.03030259,0,5018.09090859,0,4270.60606018,0,4456.06060561,0,4230.93939352,0,4857.87878739,0,4494.18181773,0,42.0,42.0,?
2017-07-31 18:53:40.259128,4552.39393894,0,4267.51515109,0,4002.72727233,0,3934.72727233,0,4317.48484805,0,5357.57575704,0,4235.06060564,0,4356.12121169,0,5003.15151465,0,4239.69696927,0,4438.03030259,0,4236.09090867,0,4848.09090861,0,4479.75757531,0,42.0,42.0,?
2017-07-31 18:53:40.262518,4560.12121167,0,4262.87878745,0,4007.36363596,0,3929.06060567,0,4325.21212078,0,5365.30302977,0,4249.99999958,0,4366.42424199,0,5018.09090859,0,4244.84848442,0,4447.30302986,0,4235.57575715,0,4856.33333285,0,4490.57575713,0,42.0,42.0,?
2017-07-31 18:53:40.265839,4559.09090864,0,4266.48484806,0,3999.12121172,0,3913.60606021,0,4309.24242381,0,5356.54545401,0,4248.45454503,0,4356.6363632,0,5012.42424192,0,4247.424242,0,4449.87878743,0,4230.93939352,0,4858.90909042,0,4490.57575713,0,42.0,42.0,?
2017-07-31 18:53:40.268902,4562.69696924,0,4247.424242,0,4014.06060566,0,3936.78787839,0,4328.30302987,0,5365.81818128,0,4268.54545412,0,4375.69696926,0,5030.96969647,0,4262.36363594,0,4477.18181773,0,4229.90909049,0,4879.51515103,0,4500.87878743,0,42.0,42.0,?
2017-07-31 18:53:40.272423,4571.454545,0,4274.7272723,0,3991.90909051,0,3922.87878749,0,4317.99999957,0,5346.24242371,0,4240.21212079,0,4362.30302987,0,5010.36363586,0,4241.75757533,0,4475.63636319,0,4241.24242382,0,4891.36363587,0,4500.36363591,0,42.0,42.0,?
2017-07-31 18:53:40.281959,4568.36363591,0,4256.69696927,0,4002.21212081,0,3931.12121173,0,4326.75757532,0,5353.45454492,0,4228.87878746,0,4362.30302987,0,5009.33333283,0,4253.60606018,0,4469.45454501,0,4238.15151473,0,4875.39393891,0,4502.93939349,0,42.0,42.0,?
2017-07-31 18:53:40.286999,4570.42424197,0,4251.54545412,0,4014.06060566,0,3946.57575718,0,4340.15151472,0,5374.06060552,0,4256.18181776,0,4379.81818138,0,5031.9999995,0,4270.09090866,0,4472.5454541,0,4235.06060564,0,4869.21212073,0,4509.63636319,0,42.0,42.0,?
2017-07-31 18:53:40.294770,4564.24242379,0,4277.81818139,0,3991.90909051,0,3921.33333294,0,4310.27272684,0,5360.66666613,0,4249.99999958,0,4361.27272684,0,5010.87878738,0,4245.87878745,0,4457.09090865,0,4235.06060564,0,4868.1818177,0,4496.75757531,0,42.0,42.0,?
2017-07-31 18:53:40.300277,4555.99999954,2522.18181793,4248.45454503,0,4026.42424202,0,3945.54545415,0,4331.39393896,0,5380.2424237,0,4261.84848442,0,4380.3333329,0,5028.90909041,0,4267.51515109,0,4476.66666622,0,4233.51515109,0,4881.06060557,0,4503.96969652,0,42.0,42.0,?
2017-07-31 18:53:40.303732,4565.78787833,2522.18181793,4270.60606018,828.363636281,3999.12121172,0,3920.30302991,0,4313.87878745,0,5360.15151462,0,4221.15151473,0,4350.96969653,0,5003.66666617,0,4240.21212079,0,4469.96969652,0,4237.1212117,0,4879.51515103,0,4496.75757531,0,42.0,42.0,?
2017-07-31 18:53:40.308038,4580.21212075,2522.18181793,4260.81818139,828.363636281,3988.3030299,0,3918.24242385,0,4312.3333329,0,5362.21212068,0,4223.21212079,0,4343.75757532,0,4999.54545405,0,4241.24242382,0,4470.48484804,0,4232.99999958,0,4873.84848436,0,4499.33333288,3070.30303,42.0,42.0,?
2017-07-31 18:53:40.310966,4583.30302984,2522.18181793,4255.66666624,828.363636281,4011.48484808,3849.21212083,3942.96969658,0,4327.27272684,0,5377.15151461,0,4261.84848442,0,4377.75757532,0,5030.45454495,0,4275.24242381,0,4482.33333289,0,4235.57575715,0,4875.39393891,0,4516.33333288,3070.30303,42.0,42.0,?
2017-07-31 18:53:40.313996,4564.7575753,2522.18181793,4279.87878745,828.363636281,4003.75757536,3849.21212083,3922.87878749,65.9393939328,4305.12121169,0,5351.39393886,0,4240.7272723,0,4360.75757532,0,5011.39393889,0,4242.78787836,0,4460.18181774,0,4235.57575715,0,4864.06060557,0,4496.75757531,3070.30303,42.0,42.0,?
2017-07-31 18:53:40.320992,4560.12121167,2522.18181793,4245.87878745,828.363636281,4033.12121172,3849.21212083,3947.0909087,65.9393939328,4338.60606017,4112.96969656,5383.3333328,0,4264.93939351,0,4383.42424199,0,5030.96969647,0,4247.424242,0,4478.72727228,0,4231.45454503,0,4871.7878783,0,4491.09090864,3070.30303,42.0,42.0,?
2017-07-31 18:53:40.332820,4564.7575753,2522.18181793,4268.0303026,828.363636281,3988.81818142,3849.21212083,3924.42424203,65.9393939328,4306.66666624,4112.96969656,5370.45454492,3667.87878751,4247.93939351,3020.84848455,4355.09090866,0,4998.51515102,0,4235.06060564,0,4452.45454501,0,4234.54545412,0,4850.66666618,0,4479.24242379,3070.30303,42.0,42.0,?
2017-07-31 18:53:40.338775,4564.7575753,2522.18181793,4262.36363594,828.363636281,3962.03030263,3849.21212083,3911.54545415,65.9393939328,4306.66666624,4112.96969656,5370.45454492,3667.87878751,4247.93939351,3020.84848455,4355.09090866,0,4998.51515102,0,4235.06060564,0,4452.45454501,0,4234.54545412,0,4850.66666618,0,4479.24242379,3070.30303,42.0,42.0,?
2017-07-31 18:53:40.348496,4555.99999954,2522.18181793,4272.15151472,828.363636281,3971.81818142,3849.21212083,3903.30302991,65.9393939328,4294.81818139,4112.96969656,5364.78787825,3667.87878751,4225.78787837,3020.84848455,4333.45454502,2897.21212092,4982.54545405,2645.81818155,4225.78787837,0,4444.72727228,0,4234.54545412,0,4844.99999952,0,4466.36363592,3070.30303,42.0,42.0,?
2017-07-31 18:53:40.350342,4555.99999954,2522.18181793,4272.15151472,828.363636281,3971.81818142,3849.21212083,3903.30302991,65.9393939328,4294.81818139,4112.96969656,5364.78787825,3667.87878751,4225.78787837,3020.84848455,4333.45454502,2897.21212092,4982.54545405,2645.81818155,4225.78787837,0,4444.72727228,0,4234.54545412,0,4844.99999952,0,4466.36363592,3070.30303,42.0,42.0,?
2017-07-31 18:53:40.363664,4550.84848439,2522.18181793,4247.93939351,828.363636281,3985.21212081,3849.21212083,3919.27272688,65.9393939328,4310.78787836,4112.96969656,5392.09090855,3667.87878751,4241.75757533,3020.84848455,4350.45454502,2897.21212092,5001.60606011,2645.81818155,4244.84848442,3457.69696935,4459.15151471,0,4232.48484806,0,4853.24242376,0,4476.66666622,3070.30303,42.0,42.0,?
2017-07-31 18:53:40.367966,4562.18181773,2522.18181793,4270.09090866,828.363636281,3986.75757536,3849.21212083,3911.54545415,65.9393939328,4304.09090866,4112.96969656,5384.36363583,3667.87878751,4220.1212117,3020.84848455,4342.72727229,2897.21212092,4996.96969647,2645.81818155,4238.66666624,3457.69696935,4466.87878743,3329.93939361,4236.60606018,0,4863.54545406,0,4484.39393895,3070.30303,42.0,42.0,?
2017-07-31 18:53:40.384219,4567.33333288,2522.18181793,4266.99999957,828.363636281,3983.66666627,3849.21212083,3909.99999961,65.9393939328,4296.36363593,4112.96969656,5378.69696916,3667.87878751,4204.15151473,3020.84848455,4329.3333329,2897.21212092,4990.27272677,2645.81818155,4228.87878746,3457.69696935,4466.87878743,3329.93939361,4232.48484806,4.1212121208,4861.484848,0,4486.96969652,3070.30303,42.0,42.0,?
2017-07-31 18:53:40.385941,4560.63636318,2522.18181793,4276.78787836,828.363636281,3985.21212081,3849.21212083,3908.96969658,65.9393939328,4298.93939351,4112.96969656,5401.36363582,3667.87878751,4223.7272723,3020.84848455,4340.15151472,2897.21212092,4984.60606011,2645.81818155,4237.1212117,3449.45454511,4456.57575713,3329.93939361,4233.51515109,4.1212121208,4854.7878783,2303.75757553,4477.18181773,3070.30303,42.0,42.0,?
2017-07-31 18:53:40.388819,4560.63636318,2522.18181793,4276.78787836,828.363636281,3985.21212081,3849.21212083,3908.96969658,65.9393939328,4298.93939351,4112.96969656,5401.36363582,3667.87878751,4223.7272723,3020.84848455,4340.15151472,2897.21212092,4984.60606011,2645.81818155,4237.1212117,3449.45454511,4456.57575713,3329.93939361,4233.51515109,4.1212121208,4854.7878783,2303.75757553,4477.18181773,3070.30303,42.0,42.0,?
2017-07-31 18:53:40.406740,4566.30302985,2522.18181793,4249.48484806,828.363636281,3991.90909051,3849.21212083,3921.84848446,65.9393939328,4311.30302987,4112.96969656,5414.75757522,3667.87878751,4237.1212117,3020.84848455,4353.54545411,2897.21212092,4995.93939344,2645.81818155,4239.18181776,3449.45454511,4478.72727228,3342.30302997,4234.03030261,4.1212121208,4873.33333285,2303.75757553,4493.66666622,3070.30303,42.0,42.0,?
2017-07-31 18:53:40.414352,4565.78787833,2522.18181793,4260.81818139,828.363636281,3977.48484809,3849.21212083,3915.15151476,65.9393939328,4299.96969654,4112.96969656,5409.09090855,3667.87878751,4246.90909048,3020.84848455,4356.6363632,2897.21212092,5005.72727223,2645.81818155,4237.1212117,3449.45454511,4482.8484844,3342.30302997,4238.15151473,4.1212121208,4884.66666618,2303.75757553,4499.33333288,3070.30303,42.0,42.0,?
2017-07-31 18:53:40.418963,4551.36363591,2522.18181793,4271.63636321,828.363636281,3982.63636324,3849.21212083,3896.60606022,65.9393939328,4283.48484806,4112.96969656,5386.9393934,3667.87878751,4228.36363594,3020.84848455,4339.6363632,2897.21212092,4993.87878738,2645.81818155,4234.03030261,3449.45454511,4453.48484804,3342.30302997,4232.48484806,4.1212121208,4859.42424194,2303.75757553,4477.69696925,3070.30303,42.0,42.0,?
2017-07-31 18:53:40.424166,4554.96969651,2522.18181793,4244.33333291,828.363636281,4022.81818142,3849.21212083,3929.57575718,65.9393939328,4319.0303026,4112.96969656,5409.60606007,3667.87878751,4248.45454503,3020.84848455,4368.48484805,2897.21212092,5023.75757526,2645.81818155,4252.06060564,3449.45454511,4470.99999955,3342.30302997,4229.90909049,4.1212121208,4855.81818133,2303.75757553,4485.93939349,3070.30303,42.0,42.0,?
2017-07-31 18:53:40.431110,4565.78787833,2522.18181793,4278.33333291,828.363636281,3956.87878748,3849.21212083,3896.0909087,65.9393939328,4287.09090866,4112.96969656,5392.60606007,3667.87878751,4221.15151473,3020.84848455,4335.51515108,2897.21212092,4985.12121162,2645.81818155,4210.33333291,3449.45454511,4450.90909046,3342.30302997,4236.09090867,4.1212121208,4847.06060558,2303.75757553,4482.33333289,3070.30303,42.0,42.0,?
2017-07-31 18:53:40.436060,4558.57575712,2522.18181793,4255.66666624,828.363636281,3955.84848445,3849.21212083,3904.33333294,65.9393939328,4293.27272684,4112.96969656,5408.06060552,3667.87878751,4234.54545412,3020.84848455,4336.0303026,2897.21212092,4979.45454496,2645.81818155,4219.09090867,3449.45454511,4444.21212077,3342.30302997,4229.90909049,4.1212121208,4840.87878739,2303.75757553,4482.33333289,3070.30303,42.0,42.0,?
2017-07-31 18:53:40.444179,4555.48484803,2522.18181793,4258.75757533,828.363636281,3999.63636324,3849.21212083,3916.69696931,65.9393939328,4306.66666624,4112.96969656,5415.27272673,3667.87878751,4239.18181776,3020.84848455,4353.03030259,2897.21212092,4996.45454495,2645.81818155,4225.27272685,3449.45454511,4453.48484804,3342.30302997,4234.54545412,4.1212121208,4852.21212073,2303.75757553,4482.33333289,3070.30303,42.0,42.0,?
2017-07-31 18:53:40.453544,4568.36363591,2522.18181793,4278.84848442,828.363636281,3977.48484809,3849.21212083,3894.03030264,65.9393939328,4286.57575715,4112.96969656,5396.72727219,3667.87878751,4210.33333291,3020.84848455,4333.45454502,2897.21212092,4985.12121162,2645.81818155,4211.87878746,3449.45454511,4448.8484844,3342.30302997,4238.66666624,4.1212121208,4854.27272679,2303.75757553,4483.36363592,3070.30303,42.0,42.0,?
2017-07-31 18:53:40.460166,4560.63636318,2522.18181793,4265.96969654,828.363636281,4007.87878748,3849.21212083,3942.45454506,65.9393939328,4310.78787836,4112.96969656,5439.48484794,3667.87878751,4260.30302988,3020.84848455,4372.60606017,2897.21212092,5031.48484798,2645.81818155,4272.66666624,3449.45454511,4478.21212076,3342.30302997,4237.63636321,4.1212121208,4860.96969648,2303.75757553,4508.09090864,3070.30303,42.0,42.0,?
2017-07-31 18:53:40.466934,4560.63636318,2522.18181793,4265.96969654,828.363636281,4007.36363596,3849.21212083,3922.87878749,65.9393939328,4310.78787836,4112.96969656,5416.81818128,3667.87878751,4228.36363594,3020.84848455,4347.87878744,2897.21212092,5006.24242374,2645.81818155,4249.99999958,3449.45454511,4458.63636319,3342.30302997,4237.63636321,4.1212121208,4848.09090861,2303.75757553,4480.27272682,3070.30303,42.0,42.0,?
2017-07-31 18:53:40.478136,4559.60606015,2522.18181793,4264.424242,828.363636281,3976.96969657,3849.21212083,3901.75757537,65.9393939328,4296.87878745,4112.96969656,5393.6363631,3667.87878751,4194.87878746,3020.84848455,4324.69696926,2897.21212092,4982.03030253,2645.81818155,4222.18181776,3449.45454511,4451.42424198,3342.30302997,4237.63636321,4.1212121208,4846.54545406,2303.75757553,4470.48484804,3070.30303,42.0,42.0,?
2017-07-31 18:53:40.483868,4571.96969651,2522.18181793,4247.424242,828.363636281,3969.75757536,3849.21212083,3924.93939355,65.9393939328,4319.0303026,4112.96969656,5418.87878734,3667.87878751,4231.96969655,3020.84848455,4350.96969653,2897.21212092,5006.24242374,2645.81818155,4244.84848442,3449.45454511,4473.06060561,3342.30302997,4234.03030261,4.1212121208,4864.06060557,2303.75757553,4494.69696925,3070.30303,42.0,42.0,?
2017-07-31 18:53:40.495049,4553.93939348,2522.18181793,4272.15151472,828.363636281,3972.84848445,3849.21212083,3906.90909052,65.9393939328,4294.30302987,4112.96969656,5409.60606007,3667.87878751,4219.09090867,3020.84848455,4330.87878745,2897.21212092,4986.66666617,2645.81818155,4227.33333291,3449.45454511,4445.2424238,3342.30302997,4232.99999958,4.1212121208,4843.45454497,2303.75757553,4470.48484804,3070.30303,42.0,42.0,?
2017-07-31 18:53:40.499601,4553.42424197,2522.18181793,4246.39393897,828.363636281,4003.75757536,3849.21212083,3924.93939355,65.9393939328,4307.69696927,4112.96969656,5419.90909037,3667.87878751,4224.24242382,3020.84848455,4343.75757532,2897.21212092,5002.63636314,2645.81818155,4239.69696927,3449.45454511,4451.93939349,3342.30302997,4230.424242,4.1212121208,4841.90909042,2303.75757553,4471.51515107,3070.30303,42.0,42.0,?
2017-07-31 18:53:40.512743,4574.03030257,2522.18181793,4266.48484806,828.363636281,3967.6969693,3849.21212083,3911.03030264,65.9393939328,4290.69696927,4112.96969656,5409.60606007,3667.87878751,4211.87878746,3020.84848455,4333.45454502,2897.21212092,4989.24242374,2645.81818155,4220.63636321,3449.45454511,4459.15151471,3342.30302997,4236.60606018,4.1212121208,4861.99999951,2303.75757553,4482.33333289,3070.30303,42.0,42.0,?
2017-07-31 18:53:40.518859,4566.30302985,2522.18181793,4262.87878745,828.363636281,3959.96969657,3849.21212083,3910.51515112,65.9393939328,4293.27272684,4112.96969656,5421.96969643,3667.87878751,4216.51515109,3020.84848455,4332.42424199,2897.21212092,4983.06060556,2645.81818155,4219.09090867,3449.45454511,4459.15151471,3342.30302997,4236.09090867,4.1212121208,4858.90909042,2303.75757553,4476.66666622,3070.30303,42.0,42.0,?
2017-07-31 18:53:40.522054,4551.87878742,2522.18181793,4253.09090867,828.363636281,3997.06060566,3849.21212083,3925.96969658,65.9393939328,4315.42424199,4112.96969656,5444.63636309,3667.87878751,4247.93939351,3020.84848455,4356.12121169,2897.21212092,5006.24242374,2645.81818155,4242.78787836,3449.45454511,4456.06060561,3342.30302997,4234.54545412,4.1212121208,4846.03030255,2303.75757553,4470.99999955,3070.30303,42.0,42.0,?
2017-07-31 18:53:40.531257,4551.87878742,2522.18181793,4273.69696927,828.363636281,3973.36363597,3849.21212083,3893.51515113,65.9393939328,4286.57575715,4112.96969656,5422.99999946,3667.87878751,4227.84848443,3020.84848455,4331.39393896,2897.21212092,4982.54545405,2645.81818155,4208.27272685,3449.45454511,4422.57575713,3342.30302997,4230.93939352,4.1212121208,4832.63636315,2303.75757553,4462.75757531,3070.30303,42.0,42.0,?
2017-07-31 18:53:40.538716,4553.93939348,2522.18181793,4238.66666624,828.363636281,3978.51515112,3849.21212083,3920.81818143,65.9393939328,4314.90909048,4112.96969656,5449.27272673,3667.87878751,4237.63636321,3020.84848455,4348.39393896,2897.21212092,5003.66666617,2645.81818155,4222.69696927,3449.45454511,4433.90909047,3342.30302997,4227.84848443,4.1212121208,4837.27272679,2303.75757553,4481.81818137,3070.30303,42.0,42.0,?
2017-07-31 18:53:40.546667,4541.06060561,2522.18181793,4262.36363594,828.363636281,3956.87878748,3849.21212083,3908.45454506,65.9393939328,4302.0303026,4112.96969656,5435.87878734,3667.87878751,4215.48484806,3020.84848455,4334.99999957,2897.21212092,4986.66666617,2645.81818155,4209.30302988,3449.45454511,4427.72727228,3342.30302997,4238.66666624,4.1212121208,4834.69696921,2303.75757553,4460.69696925,3070.30303,42.0,42.0,?
2017-07-31 18:53:40.553146,4535.39393894,2522.18181793,4259.78787836,828.363636281,3953.78787839,3849.21212083,3896.60606022,65.9393939328,4287.60606018,4112.96969656,5417.33333279,3667.87878751,4209.30302988,3020.84848455,4326.75757532,2897.21212092,4976.36363587,2645.81818155,4197.45454503,3449.45454511,4426.69696925,3342.30302997,4234.03030261,4.1212121208,4835.21212073,2303.75757553,4442.15151471,3070.30303,42.0,42.0,?
2017-07-31 18:53:40.560768,4554.454545,2522.18181793,4244.33333291,828.363636281,3980.06060566,3849.21212083,3926.48484809,65.9393939328,4315.93939351,4112.96969656,5431.2424237,3667.87878751,4237.1212117,3020.84848455,4358.69696926,2897.21212092,5018.09090859,2645.81818155,4242.78787836,3449.45454511,4453.99999955,3342.30302997,4228.36363594,4.1212121208,4850.66666618,2303.75757553,4472.5454541,3070.30303,42.0,42.0,?
2017-07-31 18:53:40.570690,4555.99999954,2522.18181793,4278.84848442,828.363636281,3953.27272688,3849.21212083,3906.393939,65.9393939328,4293.27272684,4112.96969656,5400.84848431,3667.87878751,4204.15151473,3020.84848455,4331.39393896,2897.21212092,4993.87878738,2645.81818155,4238.66666624,3449.45454511,4436.99999956,3342.30302997,4235.57575715,4.1212121208,4844.99999952,2303.75757553,4472.5454541,3070.30303,42.0,42.0,?
2017-07-31 18:53:40.581895,4540.03030258,2522.18181793,4245.36363594,828.363636281,3992.42424203,3849.21212083,3931.12121173,65.9393939328,4318.51515108,4112.96969656,5415.27272673,3667.87878751,4230.424242,3020.84848455,4348.90909047,2897.21212092,5005.72727223,2645.81818155,4236.09090867,3449.45454511,4450.90909046,3342.30302997,4234.54545412,4.1212121208,4852.72727224,2303.75757553,4471.51515107,3070.30303,42.0,42.0,?
2017-07-31 18:53:40.587474,4546.21212076,2522.18181793,4258.24242382,828.363636281,3979.03030263,3849.21212083,3919.7878784,65.9393939328,4314.39393896,4112.96969656,5408.57575703,3667.87878751,4238.66666624,3020.84848455,4349.9393935,2897.21212092,5005.72727223,2645.81818155,4206.72727231,3449.45454511,4448.33333289,3342.30302997,4234.03030261,4.1212121208,4857.36363588,2303.75757553,4465.8484844,3070.30303,42.0,42.0,?
2017-07-31 18:53:40.591854,4550.84848439,2522.18181793,4264.93939351,828.363636281,3936.27272688,3849.21212083,3897.12121173,65.9393939328,4295.3333329,4112.96969656,5393.12121158,3667.87878751,4219.60606018,3020.84848455,4331.39393896,2897.21212092,4990.27272677,2645.81818155,4207.24242382,3449.45454511,4428.2424238,3342.30302997,4229.90909049,4.1212121208,4842.42424194,2303.75757553,4457.60606016,3070.30303,42.0,42.0,?
2017-07-31 18:53:40.599845,4532.81818136,2522.18181793,4241.24242382,828.363636281,3971.81818142,3849.21212083,3918.75757537,65.9393939328,4315.42424199,4112.96969656,5411.66666613,3667.87878751,4243.81818139,3020.84848455,4356.6363632,2897.21212092,5013.96969647,2645.81818155,4260.30302988,3449.45454511,4439.57575713,3342.30302997,4233.51515109,4.1212121208,4840.87878739,2303.75757553,4459.66666622,3070.30303,42.0,42.0,?
2017-07-31 18:53:40.612227,4527.1515147,2522.18181793,4273.69696927,828.363636281,3951.72727233,3849.21212083,3892.99999961,65.9393939328,4291.21212078,4112.96969656,5381.78787825,3667.87878751,4220.63636321,3020.84848455,4330.87878745,2897.21212092,4983.06060556,2645.81818155,4230.93939352,3449.45454511,4425.66666622,3342.30302997,4237.63636321,4.1212121208,4836.75757527,2303.75757553,4448.33333289,3070.30303,42.0,42.0,?
2017-07-31 18:53:40.615889,4547.24242379,2522.18181793,4247.93939351,828.363636281,3960.48484809,3849.21212083,3918.75757537,65.9393939328,4322.12121169,4112.96969656,5398.27272673,3667.87878751,4240.21212079,3020.84848455,4349.9393935,2897.21212092,4998.51515102,2645.81818155,4228.36363594,3449.45454511,4453.48484804,3342.30302997,4229.90909049,4.1212121208,4852.72727224,2303.75757553,4470.99999955,3070.30303,42.0,42.0,?
2017-07-31 18:53:40.623651,4551.87878742,2522.18181793,4253.60606018,828.363636281,3962.54545415,3849.21212083,3917.21212082,65.9393939328,4322.6363632,4112.96969656,5396.72727219,3667.87878751,4238.66666624,3020.84848455,4356.12121169,2897.21212092,5003.15151465,2645.81818155,4231.96969655,3449.45454511,4457.60606016,3342.30302997,4236.60606018,4.1212121208,4856.33333285,2303.75757553,4472.5454541,3070.30303,42.0,42.0,?
2017-07-31 18:53:40.636429,4540.54545409,2522.18181793,4263.39393897,828.363636281,3922.36363597,3849.21212083,3887.33333294,65.9393939328,4290.69696927,4112.96969656,5364.27272674,3667.87878751,4211.36363594,3020.84848455,4325.72727229,2897.21212092,4977.90909041,2645.81818155,4210.33333291,3449.45454511,4423.60606016,3342.30302997,4235.06060564,4.1212121208,4834.69696921,2303.75757553,4451.93939349,3070.30303,42.0,42.0,?
2017-07-31 18:53:40.643548,4538.48484803,2522.18181793,4245.87878745,828.363636281,3932.15151476,3849.21212083,3904.33333294,65.9393939328,4308.7272723,4112.96969656,5373.03030249,3667.87878751,4233.51515109,3020.84848455,4344.27272684,2897.21212092,4999.03030253,2645.81818155,4214.45454503,3449.45454511,4431.84848441,3342.30302997,4227.84848443,4.1212121208,4835.72727224,2303.75757553,4456.57575713,3070.30303,42.0,42.0,?
2017-07-31 18:53:40.646822,4531.27272682,2522.18181793,4272.15151472,828.363636281,3940.393939,3849.21212083,3880.63636325,65.9393939328,4286.06060563,4112.96969656,5356.54545401,3667.87878751,4206.72727231,3020.84848455,4325.21212078,2897.21212092,4976.36363587,2645.81818155,4197.96969655,3449.45454511,4414.84848441,3342.30302997,4233.51515109,4.1212121208,4825.42424194,2303.75757553,4437.51515107,3070.30303,42.0,42.0,?
2017-07-31 18:53:40.654891,4536.42424197,2522.18181793,4238.15151473,828.363636281,3976.96969657,3849.21212083,3908.96969658,65.9393939328,4305.63636321,4112.96969656,5382.30302976,3667.87878751,4231.96969655,3020.84848455,4345.30302987,2897.21212092,4996.45454495,2645.81818155,4224.75757534,3449.45454511,4425.66666622,3342.30302997,4232.48484806,4.1212121208,4821.30302982,2303.75757553,4450.39393895,3070.30303,42.0,42.0,?
2017-07-31 18:53:40.664435,4554.454545,2522.18181793,4260.81818139,828.363636281,3953.27272688,3849.21212083,3911.03030264,65.9393939328,4302.54545412,4112.96969656,5382.30302976,3667.87878751,4242.78787836,3020.84848455,4347.87878744,2897.21212092,4998.51515102,2645.81818155,4193.84848443,3449.45454511,4427.72727228,3342.30302997,4234.03030261,4.1212121208,4830.06060558,2303.75757553,4466.36363592,3070.30303,42.0,42.0,?
2017-07-31 18:53:40.670812,4544.1515147,2522.18181793,4282.96969654,828.363636281,3928.03030264,3849.21212083,3886.30302991,65.9393939328,4279.36363594,4112.96969656,5356.03030249,3667.87878751,4208.27272685,3020.84848455,4317.48484805,2897.21212092,4964.51515102,2645.81818155,4159.84848443,3449.45454511,4405.57575714,3342.30302997,4229.39393897,4.1212121208,4821.30302982,2303.75757553,4455.03030258,3070.30303,42.0,42.0,?
2017-07-31 18:53:40.680467,4539.51515106,2522.18181793,4221.15151473,828.363636281,4006.33333293,3849.21212083,3947.60606021,65.9393939328,4340.15151472,4112.96969656,5398.78787825,3667.87878751,4252.57575715,3020.84848455,4371.06060562,2897.21212092,5014.9999995,2645.81818155,4247.93939351,3449.45454511,4441.12121168,3342.30302997,4224.75757534,4.1212121208,4830.57575709,2303.75757553,4476.1515147,3070.30303,42.0,42.0,?
2017-07-31 18:53:40.686084,4545.69696924,2522.18181793,4263.39393897,828.363636281,3981.09090869,3849.21212083,3915.66666628,65.9393939328,4311.30302987,4112.96969656,5368.39393886,3667.87878751,4229.39393897,3020.84848455,4346.84848441,2897.21212092,4991.3030298,2645.81818155,4223.7272723,3449.45454511,4426.18181774,3342.30302997,4235.06060564,4.1212121208,4830.57575709,2303.75757553,4458.12121168,3070.30303,42.0,42.0,?
2017-07-31 18:53:40.695985,4543.63636318,2522.18181793,4271.63636321,828.363636281,3938.33333294,3849.21212083,3886.30302991,65.9393939328,4291.21212078,4112.96969656,5348.81818128,3667.87878751,4210.33333291,3020.84848455,4318.51515108,2897.21212092,4967.60606011,2645.81818155,4184.06060564,3449.45454511,4408.66666623,3342.30302997,4234.54545412,4.1212121208,4824.90909043,2303.75757553,4446.78787834,3070.30303,42.0,42.0,?
2017-07-31 18:53:40.702149,4557.03030257,2522.18181793,4249.48484806,828.363636281,3957.90909051,3849.21212083,3921.33333294,65.9393939328,4323.66666623,4112.96969656,5377.66666613,3667.87878751,4243.81818139,3020.84848455,4355.09090866,2897.21212092,5007.78787829,2645.81818155,4225.78787837,3449.45454511,4433.39393895,3342.30302997,4234.54545412,4.1212121208,4837.7878783,2303.75757553,4483.36363592,3070.30303,42.0,42.0,?
2017-07-31 18:53:40.712263,4553.42424197,2522.18181793,4272.66666624,828.363636281,3970.27272688,3849.21212083,3908.45454506,65.9393939328,4299.96969654,4112.96969656,5358.09090856,3667.87878751,4220.63636321,3020.84848455,4340.66666623,2897.21212092,4996.96969647,2645.81818155,4212.90909049,3449.45454511,4424.12121168,3342.30302997,4232.99999958,4.1212121208,4837.27272679,2303.75757553,4475.12121167,3070.30303,42.0,42.0,?
2017-07-31 18:53:40.717598,4540.03030258,2522.18181793,4246.39393897,828.363636281,3996.54545415,3849.21212083,3920.30302991,65.9393939328,4311.30302987,4112.96969656,5365.81818128,3667.87878751,4231.45454503,3020.84848455,4351.48484805,2897.21212092,5005.72727223,2645.81818155,4222.18181776,3449.45454511,4431.84848441,3342.30302997,4228.87878746,4.1212121208,4839.33333285,2303.75757553,4459.15151471,3070.30303,42.0,42.0,?
2017-07-31 18:53:40.726624,4548.78787833,2522.18181793,4263.90909048,828.363636281,3962.03030263,3849.21212083,3904.84848446,65.9393939328,4302.0303026,4112.96969656,5352.42424189,3667.87878751,4225.27272685,3020.84848455,4342.72727229,2897.21212092,4995.42424192,2645.81818155,4224.24242382,3449.45454511,4432.87878744,3342.30302997,4237.1212117,4.1212121208,4839.84848436,2303.75757553,4455.5454541,3070.30303,42.0,42.0,?
2017-07-31 18:53:40.733065,4561.1515147,2522.18181793,4258.24242382,828.363636281,3955.84848445,3849.21212083,3908.45454506,65.9393939328,4306.15151472,4112.96969656,5347.78787825,3667.87878751,4221.15151473,3020.84848455,4342.21212078,2897.21212092,5002.63636314,2645.81818155,4231.45454503,3449.45454511,4444.21212077,3342.30302997,4236.09090867,4.1212121208,4848.60606012,2303.75757553,4470.48484804,3070.30303,42.0,42.0,?
2017-07-31 18:53:40.740646,4568.36363591,2522.18181793,4245.87878745,828.363636281,3976.45454506,3849.21212083,3933.6969693,65.9393939328,4326.24242381,4112.96969656,5363.75757522,3667.87878751,4242.27272685,3020.84848455,4367.45454502,2897.21212092,5025.3030298,2645.81818155,4251.03030261,3449.45454511,4461.72727228,3342.30302997,4234.03030261,4.1212121208,4865.60606012,2303.75757553,4493.66666622,3070.30303,42.0,42.0,?
2017-07-31 18:53:40.749368,4554.454545,2522.18181793,4278.33333291,828.363636281,3947.0909087,3849.21212083,3906.90909052,65.9393939328,4295.84848442,4112.96969656,5341.60606007,3667.87878751,4221.66666624,3020.84848455,4339.6363632,2897.21212092,4989.75757526,2645.81818155,4215.48484806,3449.45454511,4430.30302986,3342.30302997,4238.15151473,4.1212121208,4846.03030255,2303.75757553,4475.63636319,3070.30303,42.0,42.0,?
2017-07-31 18:53:40.757927,4537.454545,2522.18181793,4249.48484806,828.363636281,3987.27272687,3849.21212083,3929.57575718,65.9393939328,4321.60606017,4112.96969656,5367.87878734,3667.87878751,4244.84848442,3020.84848455,4356.12121169,2897.21212092,5012.93939344,2645.81818155,4227.84848443,3449.45454511,4434.9393935,3342.30302997,4232.48484806,4.1212121208,4834.1818177,2303.75757553,4468.42424198,3070.30303,42.0,42.0,?
2017-07-31 18:53:40.764697,4541.06060561,2522.18181793,4262.36363594,828.363636281,3980.06060566,3849.21212083,3915.15151476,65.9393939328,4310.27272684,4112.96969656,5364.27272674,3667.87878751,4231.96969655,3020.84848455,4344.78787835,2897.21212092,5006.24242374,2645.81818155,4229.90909049,3449.45454511,4425.66666622,3342.30302997,4234.03030261,4.1212121208,4829.03030255,2303.75757553,4460.69696925,3070.30303,42.0,42.0,?
2017-07-31 18:53:40.772469,4546.72727227,2522.18181793,4262.36363594,828.363636281,3951.72727233,3849.21212083,3903.30302991,65.9393939328,4295.84848442,4112.96969656,5356.03030249,3667.87878751,4222.18181776,3020.84848455,4332.42424199,2897.21212092,4989.24242374,2645.81818155,4225.27272685,3449.45454511,4412.78787835,3342.30302997,4233.51515109,4.1212121208,4821.81818134,2303.75757553,4461.72727228,3070.30303,42.0,42.0,?
2017-07-31 18:53:40.780804,4550.84848439,2468.60606036,4247.424242,828.363636281,3981.60606021,3849.21212083,3933.18181779,65.9393939328,4330.87878745,4112.96969656,5383.84848431,3667.87878751,4248.96969654,3020.84848455,4367.45454502,2897.21212092,5025.3030298,2645.81818155,4249.99999958,3449.45454511,4431.84848441,3342.30302997,4231.45454503,4.1212121208,4831.09090861,2303.75757553,4479.24242379,3070.30303,42.0,42.0,?
2017-07-31 18:53:40.788571,4550.33333288,2468.60606036,4277.81818139,824.24242416,3956.87878748,3849.21212083,3906.90909052,65.9393939328,4310.27272684,4112.96969656,5371.99999946,3667.87878751,4205.18181776,3020.84848455,4341.18181775,2897.21212092,5001.60606011,2645.81818155,4217.03030261,3449.45454511,4421.03030259,3342.30302997,4234.03030261,4.1212121208,4834.1818177,2303.75757553,4467.39393895,3070.30303,42.0,42.0,?
2017-07-31 18:53:40.796453,4553.93939348,2468.60606036,4245.36363594,824.24242416,3965.63636324,3849.21212083,3926.48484809,65.9393939328,4327.27272684,4112.96969656,5396.21212067,3667.87878751,4222.18181776,3020.84848455,4353.03030259,2897.21212092,5012.42424192,2645.81818155,4211.87878746,3449.45454511,4457.09090865,3342.30302997,4234.03030261,4.1212121208,4861.99999951,2303.75757553,4477.18181773,3045.57575727,42.0,42.0,?
2017-07-31 18:53:40.803935,4549.81818136,2468.60606036,4256.18181776,824.24242416,3970.78787839,3865.69696931,3920.81818143,65.9393939328,4323.66666623,4112.96969656,5397.75757522,3667.87878751,4235.57575715,3020.84848455,4351.48484805,2897.21212092,5015.51515101,2645.81818155,4221.15151473,3449.45454511,4459.15151471,3342.30302997,4239.18181776,4.1212121208,4865.0909086,2303.75757553,4473.06060561,3045.57575727,42.0,42.0,?
2017-07-31 18:53:40.812548,4539.51515106,2468.60606036,4266.48484806,824.24242416,3971.81818142,3865.69696931,3902.27272688,4.1212121208,4302.0303026,4112.96969656,5393.12121158,3667.87878751,4225.27272685,3020.84848455,4333.45454502,2897.21212092,5003.15151465,2645.81818155,4241.24242382,3449.45454511,4422.06060562,3342.30302997,4234.03030261,4.1212121208,4831.09090861,2303.75757553,4460.18181774,3045.57575727,42.0,42.0,?
2017-07-31 18:53:40.819222,4556.51515106,2468.60606036,4243.30302988,824.24242416,3983.15151475,3865.69696931,3932.66666627,4.1212121208,4321.09090866,4100.6060602,5431.2424237,3667.87878751,4255.66666624,3020.84848455,4365.39393896,2897.21212092,5029.93939344,2645.81818155,4268.54545412,3449.45454511,4443.18181774,3342.30302997,4229.90909049,4.1212121208,4840.87878739,2303.75757553,4481.30302985,3045.57575727,42.0,42.0,?
2017-07-31 18:53:40.826760,4570.93939348,2468.60606036,4273.69696927,824.24242416,3915.66666628,3865.69696931,3895.57575719,4.1212121208,4293.27272684,4100.6060602,5418.36363582,3618.42424206,4224.24242382,3020.84848455,4338.60606017,2897.21212092,4995.42424192,2645.81818155,4224.75757534,3449.45454511,4434.42424198,3342.30302997,4233.51515109,4.1212121208,4849.63636315,2303.75757553,4472.5454541,3045.57575727,42.0,42.0,?
2017-07-31 18:53:40.836256,4543.12121167,2468.60606036,4245.36363594,824.24242416,3929.06060567,3865.69696931,3898.15151476,4.1212121208,4309.24242381,4100.6060602,5435.87878734,3618.42424206,4220.63636321,3016.72727243,4335.51515108,2897.21212092,4990.78787829,2645.81818155,4214.45454503,3449.45454511,4428.2424238,3342.30302997,4229.39393897,4.1212121208,4840.36363588,2303.75757553,4458.12121168,3045.57575727,42.0,42.0,?
2017-07-31 18:53:40.842615,4518.90909046,2468.60606036,4252.06060564,824.24242416,3964.60606021,3865.69696931,3911.03030264,4.1212121208,4312.84848442,4100.6060602,5442.06060552,3618.42424206,4217.03030261,3016.72727243,4336.54545411,2901.33333304,4995.42424192,2645.81818155,4202.09090867,3449.45454511,4421.5454541,3342.30302997,4234.03030261,4.1212121208,4829.03030255,2303.75757553,4445.75757531,3045.57575727,42.0,42.0,?
2017-07-31 18:53:40.850619,4529.72727227,2468.60606036,4272.15151472,824.24242416,3958.93939354,3865.69696931,3898.15151476,4.1212121208,4291.7272723,4100.6060602,5421.96969643,3618.42424206,4201.06060564,3016.72727243,4321.09090866,2901.33333304,4986.66666617,2559.27272702,4194.87878746,3449.45454511,4410.21212077,3342.30302997,4233.51515109,4.1212121208,4819.75757528,2303.75757553,4443.18181774,3045.57575727,42.0,42.0,?
2017-07-31 18:53:40.860417,4547.24242379,2468.60606036,4243.81818139,824.24242416,3990.36363596,3865.69696931,3922.87878749,4.1212121208,4317.99999957,4100.6060602,5448.2424237,3618.42424206,4240.21212079,3016.72727243,4357.66666623,2901.33333304,5021.18181768,2559.27272702,4230.424242,3445.33333299,4439.06060562,3342.30302997,4229.90909049,4.1212121208,4836.24242376,2303.75757553,4474.60606016,3045.57575727,42.0,42.0,?
2017-07-31 18:53:40.866327,4559.09090864,2468.60606036,4272.15151472,824.24242416,3952.75757536,3865.69696931,3895.57575719,4.1212121208,4286.06060563,4100.6060602,5435.87878734,3618.42424206,4210.84848443,3016.72727243,4333.96969654,2901.33333304,4990.78787829,2559.27272702,4206.21212079,3445.33333299,4429.78787834,3214.54545422,4235.57575715,4.1212121208,4839.33333285,2303.75757553,4478.21212076,3045.57575727,42.0,42.0,?
2017-07-31 18:53:40.875126,4567.84848439,2468.60606036,4254.1212117,824.24242416,3936.78787839,3865.69696931,3905.87878749,4.1212121208,4296.87878745,4100.6060602,5453.90909036,3618.42424206,4210.84848443,3016.72727243,4333.45454502,2901.33333304,4994.39393889,2559.27272702,4229.90909049,3445.33333299,4429.78787834,3214.54545422,4229.39393897,12.3636363624,4834.1818177,2303.75757553,4478.72727228,3045.57575727,42.0,42.0,?
2017-07-31 18:53:40.881615,4544.1515147,2468.60606036,4256.18181776,824.24242416,3971.81818142,3865.69696931,3922.36363597,4.1212121208,4309.75757533,4100.6060602,5471.42424188,3618.42424206,4236.09090867,3016.72727243,4348.90909047,2901.33333304,5011.90909041,2559.27272702,4232.99999958,3445.33333299,4426.18181774,3214.54545422,4228.87878746,12.3636363624,4830.57575709,2279.0303028,4463.27272683,3045.57575727,42.0,42.0,?
2017-07-31 18:53:40.897504,4544.1515147,2468.60606036,4237.1212117,824.24242416,3983.66666627,3865.69696931,3905.87878749,4.1212121208,4320.57575714,4100.6060602,5450.81818127,3618.42424206,4212.39393897,3016.72727243,4323.66666623,2901.33333304,5019.12121162,2559.27272702,4183.54545413,3449.45454511,4398.87878744,3214.54545422,4227.33333291,12.3636363624,4818.21212073,2279.0303028,4438.03030259,3045.57575727,42.0,42.0,?
2017-07-31 18:53:40.899042,4544.1515147,2468.60606036,4237.1212117,824.24242416,3987.27272687,3865.69696931,3938.84848445,4.1212121208,4320.57575714,4100.6060602,5481.21212066,3618.42424206,4232.99999958,3016.72727243,4354.06060563,2901.33333304,5019.12121162,2559.27272702,4226.30302988,3449.45454511,4430.30302986,3214.54545422,4227.33333291,12.3636363624,4837.27272679,2279.0303028,4478.72727228,3045.57575727,42.0,42.0,?
2017-07-31 18:53:40.905884,4569.39393894,2468.60606036,4270.09090866,824.24242416,3940.393939,3865.69696931,3907.93939355,4.1212121208,4308.7272723,4100.6060602,5476.06060551,3618.42424206,4219.09090867,3016.72727243,4340.66666623,2901.33333304,5004.6969692,2559.27272702,4227.33333291,3449.45454511,4438.03030259,3214.54545422,4238.15151473,8.2424242416,4846.54545406,2279.0303028,4489.03030258,3045.57575727,42.0,42.0,?
2017-07-31 18:53:40.916725,4550.33333288,2468.60606036,4260.81818139,824.24242416,3966.66666627,3865.69696931,3903.30302991,4.1212121208,4307.69696927,4100.6060602,5482.75757521,3618.42424206,4224.24242382,3016.72727243,4333.96969654,2901.33333304,4997.48484799,2559.27272702,4222.69696927,3449.45454511,4441.12121168,3214.54545422,4236.60606018,8.2424242416,4844.484848,2279.0303028,4468.42424198,3045.57575727,42.0,42.0,?
2017-07-31 18:53:40.921003,4547.24242379,2468.60606036,4247.93939351,824.24242416,4000.15151475,3865.69696931,3927.51515112,4.1212121208,4327.27272684,4100.6060602,5500.27272672,3618.42424206,4246.39393897,3016.72727243,4354.06060563,2901.33333304,5018.6060601,2559.27272702,4253.09090867,3449.45454511,4453.48484804,3214.54545422,4234.03030261,8.2424242416,4851.1818177,2279.0303028,4472.03030258,3045.57575727,42.0,42.0,?
2017-07-31 18:53:40.932779,4555.48484803,2468.60606036,4275.75757533,824.24242416,3949.66666627,3865.69696931,3896.60606022,4.1212121208,4293.78787836,4100.6060602,5478.63636309,3618.42424206,4207.75757534,3016.72727243,4324.69696926,2901.33333304,4988.21212071,2559.27272702,4224.75757534,3449.45454511,4432.87878744,3214.54545422,4232.48484806,8.2424242416,4842.93939346,2279.0303028,4470.99999955,3045.57575727,42.0,42.0,?
2017-07-31 18:53:40.938418,4548.27272682,2468.60606036,4245.87878745,824.24242416,3975.93939354,3865.69696931,3921.84848446,4.1212121208,4316.45454502,4100.6060602,5505.42424187,3618.42424206,4219.09090867,3016.72727243,4338.09090866,2901.33333304,5005.21212071,2559.27272702,4226.30302988,3449.45454511,4443.18181774,3214.54545422,4230.424242,8.2424242416,4846.54545406,2279.0303028,4473.06060561,3045.57575727,42.0,42.0,?
2017-07-31 18:53:40.944348,4542.09090864,2468.60606036,4264.93939351,824.24242416,3976.96969657,3865.69696931,3913.0909087,4.1212121208,4311.81818139,4100.6060602,5503.87878733,3618.42424206,4211.87878746,3016.72727243,4320.57575714,2901.33333304,4991.81818132,2559.27272702,4220.63636321,3449.45454511,4428.2424238,3214.54545422,4238.66666624,8.2424242416,4839.33333285,2279.0303028,4457.09090865,3045.57575727,42.0,42.0,?
2017-07-31 18:53:40.955309,4542.09090864,2468.60606036,4262.36363594,824.24242416,3954.30302991,3865.69696931,3907.93939355,4.1212121208,4307.69696927,4100.6060602,5507.48484793,3618.42424206,4205.69696928,3016.72727243,4308.7272723,2901.33333304,4977.3939389,2559.27272702,4217.54545412,3449.45454511,4421.03030259,3214.54545422,4232.48484806,8.2424242416,4825.93939346,2279.0303028,4463.27272683,3045.57575727,42.0,42.0,?
2017-07-31 18:53:40.959695,4547.24242379,2468.60606036,4251.03030261,824.24242416,3976.96969657,3865.69696931,3938.33333294,4.1212121208,4326.24242381,4100.6060602,5533.24242369,3618.42424206,4223.21212079,3016.72727243,4337.06060563,2901.33333304,5003.66666617,2559.27272702,4235.06060564,3449.45454511,4439.57575713,3214.54545422,4229.90909049,8.2424242416,4834.1818177,2279.0303028,4480.78787834,3045.57575727,42.0,42.0,?
2017-07-31 18:53:40.967564,4549.81818136,2468.60606036,4279.87878745,824.24242416,3962.54545415,3865.69696931,3912.57575718,4.1212121208,4297.90909048,4100.6060602,5514.18181763,3618.42424206,4194.36363594,3016.72727243,4318.51515108,2901.33333304,4987.6969692,2559.27272702,4221.15151473,3449.45454511,4415.36363592,3214.54545422,4235.57575715,8.2424242416,4829.03030255,2279.0303028,4463.78787834,3045.57575727,42.0,42.0,?
2017-07-31 18:53:40.975797,4548.27272682,2468.60606036,4252.06060564,824.24242416,3974.90909051,3865.69696931,3920.30302991,4.1212121208,4313.36363593,4100.6060602,5537.87878733,3618.42424206,4215.48484806,3016.72727243,4335.51515108,2901.33333304,5001.60606011,2559.27272702,4226.30302988,3449.45454511,4424.63636319,3214.54545422,4232.99999958,8.2424242416,4832.63636315,2279.0303028,4472.03030258,3045.57575727,42.0,42.0,?
2017-07-31 18:53:40.983490,4546.21212076,2468.60606036,4270.60606018,824.24242416,3977.48484809,3865.69696931,3905.87878749,4.1212121208,4299.96969654,4100.6060602,5556.42424187,3618.42424206,4205.69696928,3016.72727243,4321.60606017,2901.33333304,4993.87878738,2559.27272702,4212.90909049,3449.45454511,4439.57575713,3214.54545422,4234.03030261,8.2424242416,4851.1818177,2279.0303028,4465.8484844,3045.57575727,42.0,42.0,?
2017-07-31 18:53:40.990804,4546.21212076,2468.60606036,4270.60606018,824.24242416,3977.48484809,3865.69696931,3905.87878749,4.1212121208,4299.96969654,4100.6060602,5556.42424187,3618.42424206,4205.69696928,3016.72727243,4321.60606017,2901.33333304,4993.87878738,2559.27272702,4212.90909049,3449.45454511,4439.57575713,3214.54545422,4234.03030261,8.2424242416,4851.1818177,2279.0303028,4465.8484844,3045.57575727,42.0,42.0,?
2017-07-31 18:53:41.000317,4566.81818136,2468.60606036,4246.90909048,824.24242416,3972.84848445,3865.69696931,3930.0909087,4.1212121208,4327.78787836,4100.6060602,5584.24242368,3618.42424206,4243.30302988,3016.72727243,4356.12121169,2901.33333304,5034.06060556,2559.27272702,4263.90909048,3449.45454511,4463.27272683,3214.54545422,4232.99999958,8.2424242416,4852.72727224,2279.0303028,4495.72727228,3045.57575727,42.0,42.0,?
2017-07-31 18:53:41.011976,4557.03030257,2468.60606036,4275.24242381,824.24242416,3938.33333294,3865.69696931,3891.45454507,4.1212121208,4297.39393896,4100.6060602,5561.57575702,3618.42424206,4215.48484806,3016.72727243,4326.75757532,2901.33333304,4997.48484799,2559.27272702,4228.87878746,3449.45454511,4432.36363592,3214.54545422,4238.66666624,8.2424242416,4835.72727224,2279.0303028,4478.72727228,3045.57575727,42.0,42.0,?
2017-07-31 18:53:41.017142,4544.66666621,2468.60606036,4245.36363594,824.24242416,3972.84848445,3865.69696931,3911.03030264,4.1212121208,4315.93939351,4100.6060602,5585.27272671,3618.42424206,4226.30302988,3016.72727243,4333.96969654,2901.33333304,5006.75757526,2559.27272702,4245.36363594,3449.45454511,4439.57575713,3214.54545422,4236.09090867,8.2424242416,4841.39393891,2279.0303028,4468.42424198,3045.57575727,42.0,42.0,?
2017-07-31 18:53:41.024534,4560.63636318,2468.60606036,4257.7272723,824.24242416,3963.57575718,3865.69696931,3915.15151476,4.1212121208,4315.93939351,4100.6060602,5591.96969641,3618.42424206,4228.87878746,3016.72727243,4339.6363632,2901.33333304,5016.03030253,2559.27272702,4245.36363594,3449.45454511,4452.96969652,3214.54545422,4238.15151473,8.2424242416,4853.24242376,2279.0303028,4472.03030258,3045.57575727,42.0,42.0,?
2017-07-31 18:53:41.031098,4561.66666621,2468.60606036,4274.21212078,824.24242416,3945.54545415,3865.69696931,3899.69696931,4.1212121208,4299.96969654,4100.6060602,5583.72727217,3618.42424206,4209.8181814,3016.72727243,4327.78787836,2901.33333304,4999.54545405,2559.27272702,4213.424242,3449.45454511,4445.75757531,3214.54545422,4231.96969655,8.2424242416,4848.60606012,2279.0303028,4470.48484804,3045.57575727,42.0,42.0,?
2017-07-31 18:53:41.037413,4563.21212076,2468.60606036,4247.424242,824.24242416,3981.09090869,3865.69696931,3929.06060567,4.1212121208,4333.96969654,4100.6060602,5623.39393883,3618.42424206,4242.27272685,3016.72727243,4361.78787835,2901.33333304,5031.48484798,2559.27272702,4246.39393897,3449.45454511,4475.12121167,3214.54545422,4227.84848443,8.2424242416,4865.0909086,2279.0303028,4492.12121167,3045.57575727,42.0,42.0,?
2017-07-31 18:53:41.046509,4566.81818136,2468.60606036,4275.75757533,824.24242416,3946.57575718,3865.69696931,3892.99999961,4.1212121208,4304.09090866,4100.6060602,5610.51515095,3618.42424206,4214.45454503,3016.72727243,4332.42424199,2901.33333304,5003.15151465,2559.27272702,4235.57575715,3449.45454511,4462.2424238,3214.54545422,4237.1212117,8.2424242416,4860.96969648,2279.0303028,4484.90909046,3045.57575727,42.0,42.0,?
2017-07-31 18:53:41.053981,4562.18181773,2468.60606036,4253.09090867,824.24242416,3959.45454506,3865.69696931,3899.69696931,4.1212121208,4311.81818139,4100.6060602,5620.30302974,3618.42424206,4219.09090867,3016.72727243,4332.93939351,2901.33333304,5005.21212071,2559.27272702,4248.96969654,3449.45454511,4455.5454541,3214.54545422,4235.06060564,8.2424242416,4847.06060558,2279.0303028,4483.87878743,3045.57575727,42.0,42.0,?
2017-07-31 18:53:41.064540,4565.78787833,2468.60606036,4256.18181776,824.24242416,3972.33333294,3865.69696931,3917.72727234,4.1212121208,4325.72727229,4100.6060602,5640.39393883,3618.42424206,4238.15151473,3016.72727243,4353.54545411,2901.33333304,5027.36363586,2559.27272702,4261.84848442,3449.45454511,4463.27272683,3214.54545422,4237.1212117,8.2424242416,4857.36363588,2279.0303028,4487.99999955,3045.57575727,42.0,42.0,?
2017-07-31 18:53:41.069416,4563.21212076,2468.60606036,4274.7272723,824.24242416,3946.57575718,3865.69696931,3900.21212082,4.1212121208,4306.66666624,4100.6060602,5632.15151459,3618.42424206,4215.48484806,3016.72727243,4334.99999957,2901.33333304,5015.51515101,2559.27272702,4226.8181814,3449.45454511,4455.5454541,3214.54545422,4234.54545412,8.2424242416,4863.54545406,2279.0303028,4479.75757531,3045.57575727,42.0,42.0,?
2017-07-31 18:53:41.078305,4558.57575712,2468.60606036,4246.39393897,824.24242416,3996.54545415,3865.69696931,3930.0909087,4.1212121208,4334.99999957,4100.6060602,5653.78787822,3618.42424206,4240.7272723,3016.72727243,4361.27272684,2901.33333304,5044.87878737,2559.27272702,4241.24242382,3449.45454511,4473.06060561,3214.54545422,4230.93939352,8.2424242416,4867.15151466,2279.0303028,4494.18181773,3045.57575727,42.0,42.0,?
2017-07-31 18:53:41.084411,4562.69696924,2468.60606036,4275.75757533,824.24242416,3991.90909051,3865.69696931,3912.57575718,4.1212121208,4317.48484805,4100.6060602,5646.57575701,3618.42424206,4228.87878746,3016.72727243,4348.90909047,2901.33333304,5028.90909041,2559.27272702,4235.06060564,3449.45454511,4458.63636319,3214.54545422,4239.18181776,8.2424242416,4861.99999951,2279.0303028,4484.90909046,3045.57575727,42.0,42.0,?
2017-07-31 18:53:41.093735,4570.42424197,2468.60606036,4258.75757533,824.24242416,3982.12121172,3865.69696931,3919.7878784,4.1212121208,4331.39393896,4100.6060602,5675.42424186,3618.42424206,4243.81818139,3016.72727243,4359.72727229,2901.33333304,5038.69696919,2559.27272702,4255.66666624,3449.45454511,4468.42424198,3214.54545422,4238.15151473,8.2424242416,4868.1818177,2279.0303028,4485.93939349,3045.57575727,42.0,42.0,?
2017-07-31 18:53:41.101112,4577.63636318,2468.60606036,4259.27272685,824.24242416,3995.51515112,3865.69696931,3937.81818142,4.1212121208,4347.87878744,4100.6060602,5696.54545398,3618.42424206,4264.93939351,3016.72727243,4380.3333329,2901.33333304,5060.33333283,2559.27272702,4281.93939351,3449.45454511,4484.39393895,3214.54545422,4238.15151473,8.2424242416,4875.90909042,2279.0303028,4503.96969652,3045.57575727,42.0,42.0,?
2017-07-31 18:53:41.113919,4581.24242378,2468.60606036,4285.0303026,824.24242416,3980.06060566,3865.69696931,3921.33333294,4.1212121208,4315.93939351,4100.6060602,5670.78787822,3618.42424206,4233.51515109,3016.72727243,4353.54545411,2901.33333304,5036.12121162,2559.27272702,4262.36363594,3449.45454511,4461.72727228,3214.54545422,4237.63636321,8.2424242416,4861.484848,2279.0303028,4503.454545,3045.57575727,42.0,42.0,?
2017-07-31 18:53:41.116394,4588.96969651,2468.60606036,4248.45454503,824.24242416,4020.75757536,3865.69696931,3953.78787839,4.1212121208,4342.21212078,4100.6060602,5694.99999943,3618.42424206,4253.60606018,3016.72727243,4379.30302987,2901.33333304,5063.93939343,2559.27272702,4271.12121169,3449.45454511,4494.69696925,3214.54545422,4234.03030261,8.2424242416,4884.66666618,2279.0303028,4515.81818137,3045.57575727,42.0,42.0,?
2017-07-31 18:53:41.125252,4584.33333287,2468.60606036,4276.27272685,824.24242416,4016.63636323,3865.69696931,3926.48484809,4.1212121208,4323.66666623,4100.6060602,5683.15151458,3618.42424206,4231.45454503,3016.72727243,4359.21212078,2901.33333304,5044.87878737,2559.27272702,4238.15151473,3449.45454511,4497.27272682,3214.54545422,4240.7272723,8.2424242416,4895.99999951,2279.0303028,4498.30302985,3045.57575727,42.0,42.0,?
2017-07-31 18:53:41.135955,4566.81818136,2468.60606036,4264.93939351,824.24242416,3997.06060566,3865.69696931,3919.7878784,4.1212121208,4322.12121169,4100.6060602,5689.84848428,3618.42424206,4224.75757534,3016.72727243,4348.90909047,2901.33333304,5036.63636313,2559.27272702,4250.51515109,3449.45454511,4472.5454541,3214.54545422,4235.06060564,8.2424242416,4868.69696921,2279.0303028,4486.45454501,3045.57575727,42.0,42.0,?
2017-07-31 18:53:41.144155,4565.78787833,2468.60606036,4246.39393897,824.24242416,3996.03030263,3865.69696931,3946.57575718,4.1212121208,4347.36363593,4100.6060602,5727.45454488,3618.42424206,4246.90909048,3016.72727243,4374.15151471,2901.33333304,5060.33333283,2559.27272702,4282.45454503,3449.45454511,4471.51515107,3214.54545422,4230.93939352,8.2424242416,4865.0909086,2279.0303028,4498.81818137,3045.57575727,42.0,42.0,?
2017-07-31 18:53:41.148172,4568.87878742,2468.60606036,4281.424242,824.24242416,3975.93939354,3865.69696931,3919.27272688,4.1212121208,4320.57575714,4100.6060602,5718.69696913,3618.42424206,4219.60606018,3016.72727243,4345.81818138,2901.33333304,5029.42424192,2559.27272702,4245.36363594,3449.45454511,4456.06060561,3214.54545422,4235.06060564,8.2424242416,4862.51515103,2279.0303028,4491.09090864,3045.57575727,42.0,42.0,?
2017-07-31 18:53:41.154350,4565.27272682,2468.60606036,4251.03030261,824.24242416,3994.9999996,3865.69696931,3942.96969658,4.1212121208,4342.21212078,4100.6060602,5740.84848427,3618.42424206,4245.87878745,3016.72727243,4364.87878744,2901.33333304,5041.78787828,2559.27272702,4253.09090867,3449.45454511,4465.33333289,3214.54545422,4234.03030261,8.2424242416,4861.484848,2279.0303028,4496.24242379,3045.57575727,42.0,42.0,?
2017-07-31 18:53:41.163966,4549.81818136,2468.60606036,4264.93939351,824.24242416,3968.21212082,3865.69696931,3930.0909087,4.1212121208,4326.24242381,4100.6060602,5728.48484791,3618.42424206,4227.84848443,3016.72727243,4352.51515108,2901.33333304,5019.63636313,2559.27272702,4231.96969655,3449.45454511,4437.51515107,3214.54545422,4235.57575715,8.2424242416,4847.06060558,2279.0303028,4473.06060561,3045.57575727,42.0,42.0,?
2017-07-31 18:53:41.171497,4542.09090864,2468.60606036,4265.96969654,824.24242416,3964.60606021,3865.69696931,3917.72727234,4.1212121208,4322.6363632,4100.6060602,5732.60606003,3618.42424206,4213.93939352,3016.72727243,4340.15151472,2901.33333304,5007.78787829,2559.27272702,4221.66666624,3449.45454511,4431.33333289,3214.54545422,4232.99999958,8.2424242416,4843.96969649,2279.0303028,4466.36363592,3045.57575727,42.0,42.0,?
2017-07-31 18:53:41.179197,4557.54545409,2468.60606036,4247.93939351,824.24242416,3992.93939354,3865.69696931,3938.84848445,4.1212121208,4354.06060563,4100.6060602,5766.60606003,3618.42424206,4261.84848442,3016.72727243,4374.15151471,2901.33333304,5044.87878737,2559.27272702,4237.63636321,3449.45454511,4473.06060561,3214.54545422,4236.09090867,8.2424242416,4871.7878783,2279.0303028,4495.72727228,3045.57575727,42.0,42.0,?
2017-07-31 18:53:41.187036,4554.454545,2468.60606036,4275.24242381,824.24242416,3961.51515112,3865.69696931,3906.90909052,4.1212121208,4320.57575714,4100.6060602,5740.33333276,3618.42424206,4239.69696927,3016.72727243,4348.39393896,2901.33333304,5016.54545404,2559.27272702,4211.87878746,3449.45454511,4447.81818137,3214.54545422,4239.18181776,8.2424242416,4863.54545406,2279.0303028,4477.69696925,3045.57575727,42.0,42.0,?
2017-07-31 18:53:41.194386,4545.18181773,2468.60606036,4249.48484806,824.24242416,3977.48484809,3865.69696931,3928.54545415,4.1212121208,4336.0303026,4100.6060602,5756.81818124,3618.42424206,4238.66666624,3016.72727243,4359.72727229,2901.33333304,5029.93939344,2559.27272702,4253.09090867,3449.45454511,4444.72727228,3214.54545422,4235.06060564,8.2424242416,4852.72727224,2279.0303028,4479.75757531,3045.57575727,42.0,42.0,?
2017-07-31 18:53:41.202406,4555.48484803,2468.60606036,4265.96969654,824.24242416,3968.72727233,3865.69696931,3927.51515112,4.1212121208,4329.84848442,4100.6060602,5757.33333276,3618.42424206,4237.63636321,3016.72727243,4359.72727229,2901.33333304,5033.03030253,2559.27272702,4259.27272685,3449.45454511,4455.5454541,3214.54545422,4240.21212079,8.2424242416,4857.87878739,2279.0303028,4490.06060561,3045.57575727,42.0,42.0,?
2017-07-31 18:53:41.210325,4558.0606056,2468.60606036,4270.09090866,824.24242416,3964.60606021,3865.69696931,3914.12121173,4.1212121208,4316.96969654,4100.6060602,5743.42424185,3618.42424206,4230.424242,3016.72727243,4347.87878744,2901.33333304,5024.27272677,2559.27272702,4241.75757533,3449.45454511,4453.48484804,3214.54545422,4234.03030261,8.2424242416,4858.90909042,2279.0303028,4482.33333289,3045.57575727,42.0,42.0,?
2017-07-31 18:53:41.218150,4560.12121167,2468.60606036,4246.90909048,824.24242416,4007.87878748,3865.69696931,3944.51515112,4.1212121208,4350.96969653,4100.6060602,5767.63636306,3618.42424206,4247.424242,3016.72727243,4378.27272683,2901.33333304,5059.81818131,2559.27272702,4274.7272723,3449.45454511,4472.03030258,3214.54545422,4229.90909049,8.2424242416,4869.72727224,2279.0303028,4494.69696925,3045.57575727,42.0,42.0,?
2017-07-31 18:53:41.225604,4568.87878742,2468.60606036,4275.75757533,824.24242416,3972.84848445,3865.69696931,3918.24242385,4.1212121208,4322.6363632,4100.6060602,5753.21212064,3618.42424206,4213.93939352,3016.72727243,4351.48484805,2901.33333304,5031.9999995,2559.27272702,4255.66666624,3449.45454511,4465.8484844,3214.54545422,4237.63636321,8.2424242416,4877.45454497,2279.0303028,4491.60606016,3045.57575727,42.0,42.0,?
2017-07-31 18:53:41.235665,4568.87878742,2468.60606036,4250.51515109,824.24242416,3971.81818142,3865.69696931,3935.75757536,4.1212121208,4333.96969654,4100.6060602,5777.42424185,3618.42424206,4239.69696927,3016.72727243,4364.87878744,2901.33333304,5040.24242374,2559.27272702,4268.54545412,3449.45454511,4486.96969652,3214.54545422,4236.09090867,8.2424242416,4886.72727224,2279.0303028,4497.27272682,3045.57575727,42.0,42.0,?
2017-07-31 18:53:41.241292,4565.78787833,2468.60606036,4265.45454503,824.24242416,3981.60606021,3865.69696931,3947.0909087,4.1212121208,4346.3333329,4100.6060602,5792.8787873,3618.42424206,4253.60606018,3016.72727243,4380.3333329,2901.33333304,5056.72727222,2559.27272702,4279.36363594,3449.45454511,4492.63636319,3214.54545422,4240.7272723,8.2424242416,4887.75757527,2279.0303028,4501.90909046,3045.57575727,42.0,42.0,?
2017-07-31 18:53:41.248349,4563.21212076,2468.60606036,4276.78787836,824.24242416,3975.42424203,3865.69696931,3929.57575718,4.1212121208,4332.42424199,4100.6060602,5779.99999942,3618.42424206,4219.60606018,3016.72727243,4361.78787835,2901.33333304,5040.24242374,2559.27272702,4259.78787836,3449.45454511,4485.42424198,3214.54545422,4239.69696927,8.2424242416,4884.66666618,2279.0303028,4497.78787834,3045.57575727,42.0,42.0,?
2017-07-31 18:53:41.258138,4564.7575753,2468.60606036,4242.27272685,824.24242416,4006.84848445,3865.69696931,3954.81818142,4.1212121208,4356.6363632,4100.6060602,5800.60606003,3618.42424206,4247.93939351,3016.72727243,4387.54545411,2901.33333304,5061.87878737,2559.27272702,4286.06060563,3449.45454511,4498.81818137,3214.54545422,4232.99999958,8.2424242416,4886.72727224,2279.0303028,4501.39393894,3045.57575727,42.0,42.0,?
2017-07-31 18:53:41.264350,4567.33333288,2468.60606036,4273.18181775,824.24242416,3970.27272688,3865.69696931,3926.99999961,4.1212121208,4336.0303026,4100.6060602,5789.78787821,3618.42424206,4249.99999958,3016.72727243,4370.54545411,2901.33333304,5040.24242374,2559.27272702,4261.84848442,3449.45454511,4461.21212077,3214.54545422,4237.1212117,8.2424242416,4867.15151466,2279.0303028,4483.87878743,3045.57575727,42.0,42.0,?
2017-07-31 18:53:41.272398,4567.33333288,2468.60606036,4256.69696927,824.24242416,3962.03030263,3865.69696931,3932.66666627,4.1212121208,4349.9393935,4100.6060602,5811.93939336,3618.42424206,4266.99999957,3016.72727243,4380.84848441,2901.33333304,5054.66666616,2559.27272702,4251.03030261,3449.45454511,4467.90909046,3214.54545422,4237.63636321,8.2424242416,4875.39393891,2279.0303028,4490.06060561,3045.57575727,42.0,42.0,?
2017-07-31 18:53:41.280413,4552.39393894,2468.60606036,4258.24242382,824.24242416,3975.42424203,3865.69696931,3945.03030264,4.1212121208,4356.12121169,4100.6060602,5818.12121154,3618.42424206,4272.66666624,3016.72727243,4396.81818138,2901.33333304,5074.75757525,2559.27272702,4268.54545412,3449.45454511,4486.45454501,3214.54545422,4238.66666624,8.2424242416,4883.63636315,2279.0303028,4487.48484804,3045.57575727,42.0,42.0,?
2017-07-31 18:53:41.287849,4540.54545409,2472.72727248,4275.75757533,824.24242416,3967.6969693,3865.69696931,3928.54545415,4.1212121208,4332.42424199,4100.6060602,5796.48484791,3618.42424206,4249.99999958,3016.72727243,4379.30302987,2901.33333304,5052.6060601,2559.27272702,4262.36363594,3449.45454511,4460.69696925,3214.54545422,4233.51515109,8.2424242416,4863.03030254,2279.0303028,4470.48484804,3045.57575727,42.0,42.0,?
2017-07-31 18:53:41.295390,4570.42424197,2472.72727248,4244.33333291,873.69696961,3986.24242384,3865.69696931,3957.90909051,4.1212121208,4363.84848441,4100.6060602,5827.39393881,3618.42424206,4287.09090866,3016.72727243,4409.69696926,2901.33333304,5077.33333283,2559.27272702,4268.54545412,3449.45454511,4489.5454541,3214.54545422,4229.39393897,8.2424242416,4885.18181769,2279.0303028,4504.99999955,3045.57575727,42.0,42.0,?
2017-07-31 18:53:41.304271,4581.24242378,2472.72727248,4277.30302988,873.69696961,3964.09090869,3865.69696931,3934.72727233,4.1212121208,4334.99999957,4100.6060602,5799.575757,3618.42424206,4254.63636321,3016.72727243,4379.81818138,2901.33333304,5050.54545404,2559.27272702,4242.78787836,3449.45454511,4481.30302985,3214.54545422,4238.66666624,8.2424242416,4886.21212072,2279.0303028,4501.39393894,3090.9090906,42.0,42.0,?
2017-07-31 18:53:41.311996,4559.60606015,2472.72727248,4266.48484806,873.69696961,3988.81818142,3713.21212084,3945.54545415,4.1212121208,4334.48484805,4100.6060602,5792.8787873,3618.42424206,4224.24242382,3016.72727243,4366.9393935,2901.33333304,5046.93939343,2559.27272702,4258.75757533,3449.45454511,4464.81818137,3214.54545422,4237.63636321,8.2424242416,4863.54545406,2279.0303028,4483.36363592,3090.9090906,42.0,42.0,?
2017-07-31 18:53:41.319305,4566.81818136,2472.72727248,4256.18181776,873.69696961,4007.36363596,3713.21212084,3966.15151475,16.4848484832,4363.84848441,4100.6060602,5821.21212063,3618.42424206,4230.93939352,3016.72727243,4387.54545411,2901.33333304,5068.57575707,2559.27272702,4275.75757533,3449.45454511,4480.78787834,3214.54545422,4236.60606018,8.2424242416,4873.84848436,2279.0303028,4500.36363591,3090.9090906,42.0,42.0,?
2017-07-31 18:53:41.326923,4573.51515106,2472.72727248,4277.81818139,873.69696961,3974.90909051,3713.21212084,3931.63636324,16.4848484832,4340.66666623,4042.9090905,5811.42424184,3618.42424206,4220.63636321,3016.72727243,4362.30302987,2901.33333304,5041.27272677,2559.27272702,4252.57575715,3449.45454511,4469.96969652,3214.54545422,4234.54545412,8.2424242416,4872.30302982,2279.0303028,4499.33333288,3090.9090906,42.0,42.0,?
2017-07-31 18:53:41.336407,4559.09090864,2472.72727248,4247.93939351,873.69696961,4023.33333293,3713.21212084,3960.9999996,16.4848484832,4364.87878744,4042.9090905,5833.06060548,3424.72727238,4262.36363594,3016.72727243,4387.03030259,2901.33333304,5064.96969646,2559.27272702,4288.63636321,3449.45454511,4480.27272682,3214.54545422,4230.93939352,8.2424242416,4869.72727224,2279.0303028,4499.8484844,3090.9090906,42.0,42.0,?
2017-07-31 18:53:41.342899,4563.21212076,2472.72727248,4277.30302988,873.69696961,4013.54545414,3713.21212084,3948.63636324,16.4848484832,4346.84848441,4042.9090905,5811.42424184,3424.72727238,4239.18181776,3086.78787848,4373.6363632,2901.33333304,5052.09090859,2559.27272702,4272.15151472,3449.45454511,4470.99999955,3214.54545422,4240.21212079,8.2424242416,4871.7878783,2279.0303028,4491.60606016,3090.9090906,42.0,42.0,?
2017-07-31 18:53:41.353670,4583.81818136,2472.72727248,4268.54545412,873.69696961,3963.57575718,3713.21212084,3934.72727233,16.4848484832,4336.54545411,4042.9090905,5809.8787873,3424.72727238,4225.27272685,3086.78787848,4358.18181775,2860.12121184,5042.3030298,2559.27272702,4241.75757533,3449.45454511,4477.18181773,3214.54545422,4237.1212117,8.2424242416,4883.12121163,2279.0303028,4502.42424197,3090.9090906,42.0,42.0,?
2017-07-31 18:53:41.360065,4578.15151469,2472.72727248,4250.51515109,873.69696961,3979.54545415,3713.21212084,3958.42424203,16.4848484832,4360.24242381,4042.9090905,5849.54545396,3424.72727238,4270.60606018,3086.78787848,4382.90909047,2860.12121184,5065.99999949,2518.06060581,4255.66666624,3449.45454511,4494.18181773,3214.54545422,4234.54545412,8.2424242416,4888.7878783,2279.0303028,4511.69696925,3090.9090906,42.0,42.0,?
2017-07-31 18:53:41.366831,4559.60606015,2472.72727248,4279.36363594,873.69696961,3979.54545415,3713.21212084,3939.87878748,16.4848484832,4338.60606017,4042.9090905,5829.96969639,3424.72727238,4253.60606018,3086.78787848,4361.78787835,2860.12121184,5042.81818131,2518.06060581,4247.424242,3482.42424208,4466.87878743,3214.54545422,4236.09090867,8.2424242416,4866.12121163,2279.0303028,4484.90909046,3090.9090906,42.0,42.0,?
2017-07-31 18:53:41.374628,4560.12121167,2472.72727248,4245.36363594,873.69696961,3998.09090869,3713.21212084,3954.81818142,16.4848484832,4360.24242381,4042.9090905,5832.03030245,3424.72727238,4260.81818139,3086.78787848,4379.81818138,2860.12121184,5058.78787828,2518.06060581,4276.78787836,3482.42424208,4476.1515147,3218.66666634,4230.424242,8.2424242416,4865.60606012,2279.0303028,4481.81818137,3090.9090906,42.0,42.0,?
2017-07-31 18:53:41.381907,4554.96969651,2472.72727248,4262.87878745,873.69696961,3981.09090869,3713.21212084,3932.66666627,16.4848484832,4346.84848441,4042.9090905,5825.84848427,3424.72727238,4245.87878745,3086.78787848,4372.09090865,2860.12121184,5037.15151465,2518.06060581,4262.36363594,3482.42424208,4463.27272683,3218.66666634,4235.57575715,4.1212121208,4869.21212073,2279.0303028,4467.90909046,3090.9090906,42.0,42.0,?
2017-07-31 18:53:41.390972,4557.54545409,2472.72727248,4265.96969654,873.69696961,3954.30302991,3713.21212084,3925.96969658,16.4848484832,4339.6363632,4042.9090905,5834.60606002,3424.72727238,4231.96969655,3086.78787848,4356.6363632,2860.12121184,5025.81818132,2518.06060581,4242.78787836,3482.42424208,4455.03030258,3218.66666634,4233.51515109,4.1212121208,4861.484848,2299.63636341,4470.48484804,3090.9090906,42.0,42.0,?
2017-07-31 18:53:41.397868,4580.72727227,2472.72727248,4248.45454503,873.69696961,3971.30302991,3713.21212084,3960.48484809,16.4848484832,4368.99999956,4042.9090905,5856.75757517,3424.72727238,4255.66666624,3086.78787848,4384.96969653,2860.12121184,5073.72727222,2518.06060581,4257.7272723,3482.42424208,4483.36363592,3218.66666634,4230.424242,4.1212121208,4870.24242376,2299.63636341,4502.93939349,3090.9090906,42.0,42.0,?
2017-07-31 18:53:41.405392,4575.0606056,2472.72727248,4282.45454503,873.69696961,3977.9999996,3713.21212084,3932.15151476,16.4848484832,4338.60606017,4042.9090905,5830.4848479,3424.72727238,4234.03030261,3086.78787848,4363.3333329,2860.12121184,5050.54545404,2518.06060581,4223.21212079,3482.42424208,4465.33333289,3222.78787847,4236.60606018,4.1212121208,4869.21212073,2299.63636341,4484.39393895,3090.9090906,42.0,42.0,?
2017-07-31 18:53:41.414292,4559.09090864,2472.72727248,4252.57575715,873.69696961,4022.3030299,3713.21212084,3954.30302991,16.4848484832,4356.6363632,4042.9090905,5862.42424184,3424.72727238,4264.93939351,3086.78787848,4378.27272683,2860.12121184,5054.15151465,2518.06060581,4253.09090867,3482.42424208,4467.90909046,3222.78787847,4235.06060564,4.1212121208,4867.66666618,2299.63636341,4477.69696925,3090.9090906,42.0,42.0,?
2017-07-31 18:53:41.421005,4569.90909045,2472.72727248,4260.30302988,873.69696961,4001.6969693,3713.21212084,3952.75757536,16.4848484832,4357.66666623,4042.9090905,5869.63636305,3424.72727238,4276.27272685,3086.78787848,4378.78787835,2860.12121184,5055.69696919,2518.06060581,4260.30302988,3482.42424208,4463.78787834,3222.78787847,4236.09090867,4.1212121208,4863.03030254,2299.63636341,4484.90909046,3090.9090906,42.0,42.0,?
2017-07-31 18:53:41.434057,4572.48484803,2472.72727248,4271.12121169,873.69696961,3979.54545415,3713.21212084,3931.12121173,16.4848484832,4344.27272684,4042.9090905,5851.60606002,3424.72727238,4257.7272723,3086.78787848,4358.69696926,2860.12121184,5044.36363586,2518.06060581,4228.36363594,3482.42424208,4451.42424198,3222.78787847,4229.39393897,4.1212121208,4853.75757527,2299.63636341,4479.75757531,3090.9090906,42.0,42.0,?
2017-07-31 18:53:41.440523,4578.15151469,2472.72727248,4251.03030261,873.69696961,4008.39393899,3713.21212084,3961.51515112,16.4848484832,4371.57575714,4042.9090905,5872.21212062,3424.72727238,4275.24242381,3086.78787848,4382.39393896,2860.12121184,5073.2121207,2518.06060581,4256.18181776,3482.42424208,4479.75757531,3222.78787847,4230.424242,4.1212121208,4868.69696921,2299.63636341,4498.30302985,3090.9090906,42.0,42.0,?
2017-07-31 18:53:41.444717,4598.24242378,2472.72727248,4285.54545412,873.69696961,3955.84848445,3713.21212084,3940.393939,16.4848484832,4342.21212078,4042.9090905,5850.57575699,3424.72727238,4244.33333291,3086.78787848,4357.66666623,2860.12121184,5053.12121162,2518.06060581,4254.1212117,3482.42424208,4477.18181773,3222.78787847,4241.24242382,4.1212121208,4880.54545406,2299.63636341,4511.18181773,3090.9090906,42.0,42.0,?
2017-07-31 18:53:41.452256,4594.63636318,2472.72727248,4261.84848442,873.69696961,3983.15151475,3713.21212084,3956.87878748,16.4848484832,4358.69696926,4042.9090905,5866.54545396,3424.72727238,4257.7272723,3086.78787848,4372.60606017,2860.12121184,5073.2121207,2518.06060581,4275.24242381,3482.42424208,4487.48484804,3222.78787847,4237.63636321,4.1212121208,4886.21212072,2299.63636341,4519.42424197,3090.9090906,42.0,42.0,?
2017-07-31 18:53:41.462908,4573.51515106,2472.72727248,4263.39393897,873.69696961,4028.9999996,3713.21212084,3958.93939354,16.4848484832,4360.75757532,4042.9090905,5873.75757517,3424.72727238,4248.96969654,3086.78787848,4373.6363632,2860.12121184,5079.39393889,2518.06060581,4273.18181775,3482.42424208,4482.33333289,3222.78787847,4236.09090867,4.1212121208,4877.45454497,2299.63636341,4497.78787834,3090.9090906,42.0,42.0,?
2017-07-31 18:53:41.473211,4569.90909045,2472.72727248,4278.33333291,873.69696961,3998.09090869,3713.21212084,3931.63636324,16.4848484832,4328.81818139,4042.9090905,5853.15151457,3424.72727238,4214.96969655,3086.78787848,4339.12121169,2860.12121184,5051.57575707,2518.06060581,4243.81818139,3482.42424208,4464.81818137,3222.78787847,4234.54545412,4.1212121208,4868.69696921,2299.63636341,4480.78787834,3090.9090906,42.0,42.0,?
2017-07-31 18:53:41.476900,4588.454545,2472.72727248,4249.99999958,873.69696961,4005.3030299,3713.21212084,3959.45454506,16.4848484832,4359.21212078,4042.9090905,5875.81818123,3424.72727238,4254.1212117,3086.78787848,4373.12121168,2860.12121184,5090.72727222,2518.06060581,4263.90909048,3482.42424208,4495.21212076,3222.78787847,4233.51515109,4.1212121208,4891.87878739,2299.63636341,4511.18181773,3090.9090906,42.0,42.0,?
2017-07-31 18:53:41.487606,4592.57575712,2472.72727248,4276.27272685,873.69696961,3979.03030263,3713.21212084,3934.21212082,16.4848484832,4339.6363632,4042.9090905,5846.45454487,3424.72727238,4221.15151473,3086.78787848,4355.09090866,2860.12121184,5071.66666616,2518.06060581,4243.81818139,3482.42424208,4484.39393895,3222.78787847,4238.15151473,4.1212121208,4890.33333284,2299.63636341,4503.96969652,3090.9090906,42.0,42.0,?
2017-07-31 18:53:41.494534,4585.36363591,2472.72727248,4257.7272723,873.69696961,3980.57575718,3713.21212084,3943.48484809,16.4848484832,4344.78787835,4042.9090905,5840.27272669,3424.72727238,4210.84848443,3086.78787848,4354.06060563,2860.12121184,5071.66666616,2518.06060581,4262.36363594,3482.42424208,4482.8484844,3222.78787847,4232.48484806,4.1212121208,4880.03030254,2299.63636341,4501.39393894,3090.9090906,42.0,42.0,?
2017-07-31 18:53:41.499093,4589.48484803,2472.72727248,4259.27272685,873.69696961,4008.39393899,3713.21212084,3965.12121172,16.4848484832,4361.78787835,4042.9090905,5858.81818123,3424.72727238,4251.03030261,3086.78787848,4385.48484805,2860.12121184,5103.09090858,2518.06060581,4287.09090866,3482.42424208,4498.81818137,3222.78787847,4235.06060564,4.1212121208,4892.90909042,2299.63636341,4511.18181773,3090.9090906,42.0,42.0,?
2017-07-31 18:53:41.507110,4583.81818136,2472.72727248,4280.90909048,873.69696961,4007.87878748,3713.21212084,3939.36363597,16.4848484832,4339.12121169,4042.9090905,5849.54545396,3424.72727238,4251.03030261,3086.78787848,4376.21212077,2860.12121184,5088.66666616,2518.06060581,4251.03030261,3482.42424208,4485.93939349,3222.78787847,4238.15151473,4.1212121208,4891.87878739,2299.63636341,4493.66666622,3090.9090906,42.0,42.0,?
2017-07-31 18:53:41.516431,4585.36363591,2472.72727248,4246.90909048,873.69696961,4012.51515111,3713.21212084,3960.48484809,16.4848484832,4360.24242381,4042.9090905,5870.15151456,3424.72727238,4281.424242,3086.78787848,4401.45454501,2860.12121184,5108.24242373,2518.06060581,4255.66666624,3482.42424208,4500.36363591,3222.78787847,4234.03030261,4.1212121208,4894.96969648,2299.63636341,4507.06060561,3090.9090906,42.0,42.0,?
2017-07-31 18:53:41.522838,4591.03030257,2472.72727248,4273.18181775,873.69696961,3958.93939354,3713.21212084,3935.75757536,16.4848484832,4339.6363632,4042.9090905,5849.03030245,3424.72727238,4259.78787836,3086.78787848,4379.30302987,2860.12121184,5085.57575707,2518.06060581,4247.93939351,3482.42424208,4478.21212076,3222.78787847,4237.1212117,4.1212121208,4881.57575709,2299.63636341,4503.96969652,3090.9090906,42.0,42.0,?
2017-07-31 18:53:41.530732,4573.51515106,2472.72727248,4264.424242,873.69696961,3968.72727233,3713.21212084,3933.18181779,16.4848484832,4347.36363593,4042.9090905,5855.72727214,3424.72727238,4245.87878745,3086.78787848,4368.48484805,2860.12121184,5084.03030252,2518.06060581,4262.87878745,3482.42424208,4463.78787834,3222.78787847,4233.51515109,4.1212121208,4861.99999951,2299.63636341,4482.8484844,3090.9090906,42.0,42.0,?
2017-07-31 18:53:41.540305,4563.72727227,2472.72727248,4254.63636321,873.69696961,3999.12121172,3713.21212084,3955.33333294,16.4848484832,4369.51515108,4042.9090905,5885.60606002,3424.72727238,4270.09090866,3086.78787848,4388.06060562,2860.12121184,5110.81818131,2518.06060581,4270.09090866,3482.42424208,4485.93939349,3222.78787847,4235.57575715,4.1212121208,4875.39393891,2299.63636341,4481.81818137,3090.9090906,42.0,42.0,?
2017-07-31 18:53:41.545699,4580.72727227,2472.72727248,4278.84848442,873.69696961,3962.03030263,3713.21212084,3931.12121173,16.4848484832,4340.15151472,4042.9090905,5869.63636305,3424.72727238,4256.69696927,3086.78787848,4369.51515108,2860.12121184,5091.75757525,2518.06060581,4243.81818139,3482.42424208,4493.66666622,3222.78787847,4240.21212079,4.1212121208,4894.96969648,2299.63636341,4493.66666622,3090.9090906,42.0,42.0,?
2017-07-31 18:53:41.553421,4597.21212075,2472.72727248,4247.93939351,873.69696961,4002.21212081,3713.21212084,3959.96969657,16.4848484832,4366.9393935,4042.9090905,5888.18181759,3424.72727238,4281.424242,3086.78787848,4397.33333289,2860.12121184,5121.63636312,2518.06060581,4282.45454503,3482.42424208,4519.42424197,3222.78787847,4237.1212117,4.1212121208,4906.81818133,2299.63636341,4520.96969652,3090.9090906,42.0,42.0,?
2017-07-31 18:53:41.563327,4587.93939348,2472.72727248,4273.18181775,873.69696961,4014.57575717,3713.21212084,3952.75757536,16.4848484832,4354.57575714,4042.9090905,5868.0909085,3424.72727238,4270.09090866,3086.78787848,4386.51515108,2860.12121184,5110.30302979,2518.06060581,4267.51515109,3482.42424208,4492.12121167,3222.78787847,4241.24242382,4.1212121208,4889.81818133,2299.63636341,4502.42424197,3090.9090906,42.0,42.0,?
2017-07-31 18:53:41.572219,4577.63636318,2472.72727248,4270.09090866,873.69696961,3987.78787839,3713.21212084,3941.42424203,16.4848484832,4346.84848441,4042.9090905,5853.15151457,3424.72727238,4253.09090867,3086.78787848,4371.06060562,2860.12121184,5096.9090904,2518.06060581,4251.03030261,3482.42424208,4469.96969652,3222.78787847,4235.57575715,4.1212121208,4874.87878739,2299.63636341,4487.48484804,3090.9090906,42.0,42.0,?
2017-07-31 18:53:41.577257,4578.15151469,2472.72727248,4249.48484806,873.69696961,3980.06060566,3713.21212084,3952.24242385,16.4848484832,4364.87878744,4042.9090905,5869.63636305,3424.72727238,4255.15151473,3086.78787848,4387.03030259,2860.12121184,5113.39393888,2518.06060581,4272.66666624,3482.42424208,4485.42424198,3222.78787847,4231.96969655,4.1212121208,4877.96969648,2299.63636341,4497.27272682,3090.9090906,42.0,42.0,?
2017-07-31 18:53:41.589419,4563.72727227,2472.72727248,4277.30302988,873.69696961,3960.9999996,3713.21212084,3922.36363597,16.4848484832,4329.3333329,4042.9090905,5846.45454487,3424.72727238,4222.18181776,3086.78787848,4356.6363632,2860.12121184,5073.72727222,2518.06060581,4232.48484806,3482.42424208,4456.06060561,3222.78787847,4236.09090867,4.1212121208,4863.54545406,2299.63636341,4473.57575713,3090.9090906,42.0,42.0,?
2017-07-31 18:53:41.596351,4578.66666621,2472.72727248,4265.45454503,873.69696961,3976.96969657,3713.21212084,3943.48484809,16.4848484832,4351.99999956,4042.9090905,5861.39393881,3424.72727238,4251.03030261,3086.78787848,4372.60606017,2860.12121184,5085.06060555,2518.06060581,4235.06060564,3482.42424208,4466.87878743,3222.78787847,4238.15151473,4.1212121208,4870.75757527,2299.63636341,4477.69696925,3090.9090906,42.0,42.0,?
2017-07-31 18:53:41.601964,4578.66666621,2472.72727248,4265.45454503,873.69696961,3976.96969657,3713.21212084,3943.48484809,16.4848484832,4351.99999956,4042.9090905,5858.30302972,3424.72727238,4238.15151473,3086.78787848,4372.60606017,2860.12121184,5085.06060555,2518.06060581,4235.06060564,3482.42424208,4466.87878743,3222.78787847,4238.15151473,4.1212121208,4868.69696921,2299.63636341,4479.24242379,3090.9090906,42.0,42.0,?
2017-07-31 18:53:41.622676,4570.93939348,2472.72727248,4271.12121169,873.69696961,3973.36363597,3713.21212084,3936.78787839,16.4848484832,4365.39393896,4042.9090905,5852.63636305,3424.72727238,4230.424242,3086.78787848,4359.21212078,2860.12121184,5078.36363586,2518.06060581,4223.7272723,3482.42424208,4456.06060561,3222.78787847,4230.93939352,4.1212121208,4857.36363588,2299.63636341,4474.09090864,3090.9090906,42.0,42.0,?
2017-07-31 18:53:41.622938,4564.7575753,2472.72727248,4277.30302988,873.69696961,3972.84848445,3713.21212084,3927.51515112,16.4848484832,4336.0303026,4042.9090905,5842.84848426,3424.72727238,4252.57575715,3086.78787848,4369.51515108,2860.12121184,5073.72727222,2518.06060581,4250.51515109,3482.42424208,4459.15151471,3222.78787847,4235.57575715,4.1212121208,4864.06060557,2299.63636341,4494.69696925,3090.9090906,42.0,42.0,?
2017-07-31 18:53:41.624178,4564.7575753,2472.72727248,4277.30302988,873.69696961,3972.84848445,3713.21212084,3927.51515112,16.4848484832,4336.0303026,4042.9090905,5842.84848426,3424.72727238,4252.57575715,3086.78787848,4369.51515108,2860.12121184,5073.72727222,2518.06060581,4250.51515109,3482.42424208,4459.15151471,3222.78787847,4235.57575715,4.1212121208,4864.06060557,2299.63636341,4481.30302985,3090.9090906,42.0,42.0,?
2017-07-31 18:53:41.633862,4557.03030257,2472.72727248,4253.60606018,873.69696961,4004.78787839,3713.21212084,3948.63636324,16.4848484832,4355.09090866,4042.9090905,5868.0909085,3424.72727238,4252.06060564,3086.78787848,4374.66666623,2860.12121184,5086.6060601,2518.06060581,4257.7272723,3482.42424208,4465.8484844,3222.78787847,4232.48484806,4.1212121208,4863.03030254,2299.63636341,4479.24242379,3090.9090906,42.0,42.0,?
2017-07-31 18:53:41.640833,4578.15151469,2472.72727248,4265.96969654,873.69696961,4013.54545414,3713.21212084,3958.93939354,16.4848484832,4362.81818138,4042.9090905,5875.81818123,3424.72727238,4263.39393897,3086.78787848,4382.90909047,2860.12121184,5100.51515101,2518.06060581,4249.48484806,3482.42424208,4491.60606016,3222.78787847,4239.69696927,4.1212121208,4888.7878783,2299.63636341,4498.81818137,3090.9090906,42.0,42.0,?
2017-07-31 18:53:41.647264,4593.09090863,2472.72727248,4278.84848442,873.69696961,3986.75757536,3713.21212084,3946.06060567,16.4848484832,4345.81818138,4042.9090905,5851.60606002,3424.72727238,4250.51515109,3086.78787848,4370.03030259,2860.12121184,5089.69696919,2518.06060581,4249.48484806,3482.42424208,4495.21212076,3222.78787847,4240.7272723,4.1212121208,4890.84848436,2299.63636341,4510.66666622,3090.9090906,42.0,42.0,?
2017-07-31 18:53:41.657113,4591.03030257,2472.72727248,4250.51515109,873.69696961,4015.09090869,3713.21212084,3977.9999996,16.4848484832,4372.09090865,4042.9090905,5866.03030244,3424.72727238,4270.60606018,3086.78787848,4397.33333289,2860.12121184,5117.515151,2518.06060581,4287.60606018,3482.42424208,4501.39393894,3222.78787847,4235.57575715,4.1212121208,4882.0909086,2299.63636341,4522.51515106,3090.9090906,42.0,42.0,?
2017-07-31 18:53:41.663158,4594.12121166,2472.72727248,4278.33333291,873.69696961,3993.45454506,3713.21212084,3950.6969693,16.4848484832,4346.84848441,4042.9090905,5840.27272669,3424.72727238,4236.09090867,3086.78787848,4371.57575714,2860.12121184,5085.57575707,2518.06060581,4246.90909048,3482.42424208,4474.09090864,3222.78787847,4238.15151473,4.1212121208,4874.87878739,2299.63636341,4503.454545,3090.9090906,42.0,42.0,?
2017-07-31 18:53:41.671266,4588.96969651,2472.72727248,4256.69696927,873.69696961,3990.36363596,3713.21212084,3956.87878748,16.4848484832,4360.24242381,4042.9090905,5842.33333275,3424.72727238,4234.03030261,3086.78787848,4371.06060562,2860.12121184,5083.51515101,2518.06060581,4240.7272723,3482.42424208,4476.66666622,3222.78787847,4234.03030261,4.1212121208,4875.90909042,2299.63636341,4494.69696925,3090.9090906,42.0,42.0,?
2017-07-31 18:53:41.678731,4565.78787833,2472.72727248,4259.78787836,873.69696961,3992.93939354,3713.21212084,3962.54545415,16.4848484832,4370.54545411,4042.9090905,5853.66666608,3424.72727238,4248.96969654,3086.78787848,4377.75757532,2860.12121184,5098.45454494,2518.06060581,4249.99999958,3482.42424208,4466.36363592,3222.78787847,4235.57575715,4.1212121208,4863.03030254,2299.63636341,4482.33333289,3090.9090906,42.0,42.0,?
2017-07-31 18:53:41.686109,4554.454545,2472.72727248,4278.33333291,873.69696961,3977.48484809,3713.21212084,3940.90909052,16.4848484832,4350.45454502,4042.9090905,5847.99999942,3424.72727238,4243.81818139,3086.78787848,4360.75757532,2860.12121184,5088.15151464,2518.06060581,4234.54545412,3482.42424208,4438.03030259,3222.78787847,4234.03030261,4.1212121208,4846.54545406,2299.63636341,4470.48484804,3090.9090906,42.0,42.0,?
2017-07-31 18:53:41.695945,4572.48484803,2472.72727248,4249.99999958,873.69696961,4015.09090869,3713.21212084,3976.45454506,16.4848484832,4389.09090865,4042.9090905,5875.30302972,3424.72727238,4285.0303026,3086.78787848,4405.06060562,2860.12121184,5124.72727221,2518.06060581,4274.21212078,3482.42424208,4479.75757531,3222.78787847,4232.48484806,4.1212121208,4875.90909042,2299.63636341,4500.36363591,3090.9090906,42.0,42.0,?
2017-07-31 18:53:41.702132,4582.27272681,2472.72727248,4277.30302988,873.69696961,4000.15151475,3713.21212084,3955.84848445,16.4848484832,4373.6363632,4042.9090905,5853.15151457,3424.72727238,4276.78787836,3086.78787848,4398.36363592,2860.12121184,5107.2121207,2518.06060581,4260.81818139,3482.42424208,4485.42424198,3222.78787847,4240.7272723,4.1212121208,4889.81818133,2299.63636341,4495.21212076,3090.9090906,42.0,42.0,?
2017-07-31 18:53:41.710902,4580.72727227,2472.72727248,4261.84848442,873.69696961,3991.90909051,3713.21212084,3954.30302991,16.4848484832,4374.66666623,4042.9090905,5863.45454487,3424.72727238,4284.51515109,3086.78787848,4399.39393895,2860.12121184,5113.9090904,2518.06060581,4256.18181776,3482.42424208,4486.96969652,3222.78787847,4237.63636321,4.1212121208,4885.69696921,2299.63636341,4491.09090864,3090.9090906,42.0,42.0,?
2017-07-31 18:53:41.718554,4589.48484803,2472.72727248,4258.24242382,873.69696961,4002.72727233,3713.21212084,3972.84848445,16.4848484832,4394.75757532,4042.9090905,5890.24242365,3424.72727238,4309.24242381,3086.78787848,4427.21212077,2860.12121184,5146.36363585,2518.06060581,4271.63636321,3482.42424208,4505.51515106,3222.78787847,4237.63636321,4.1212121208,4900.12121163,2299.63636341,4509.12121167,3090.9090906,42.0,42.0,?
2017-07-31 18:53:41.731660,4589.48484803,2472.72727248,4277.81818139,873.69696961,3997.06060566,3713.21212084,3955.33333294,16.4848484832,4376.21212077,4042.9090905,5867.57575699,3424.72727238,4290.69696927,3086.78787848,4414.33333289,2860.12121184,5129.87878737,2518.06060581,4265.45454503,3482.42424208,4491.60606016,3222.78787847,4240.7272723,4.1212121208,4898.06060557,2299.63636341,4504.99999955,3090.9090906,42.0,42.0,?
2017-07-31 18:53:41.734661,4590.51515106,2472.72727248,4248.96969654,873.69696961,4026.42424202,3713.21212084,3983.15151475,16.4848484832,4401.45454501,4042.9090905,5884.57575699,3424.72727238,4309.75757533,3086.78787848,4435.45454501,2860.12121184,5153.57575706,2518.06060581,4306.15151472,3482.42424208,4505.51515106,3222.78787847,4238.66666624,4.1212121208,4896.51515103,2299.63636341,4519.93939349,3090.9090906,42.0,42.0,?
2017-07-31 18:53:41.743419,4604.93939348,2472.72727248,4282.96969654,873.69696961,3993.45454506,3713.21212084,3962.54545415,16.4848484832,4383.9393935,4042.9090905,5870.15151456,3424.72727238,4288.63636321,3086.78787848,4414.84848441,2860.12121184,5135.54545403,2518.06060581,4293.78787836,3482.42424208,4501.90909046,3222.78787847,4243.81818139,4.1212121208,4900.12121163,2299.63636341,4521.99999955,3090.9090906,42.0,42.0,?
2017-07-31 18:53:41.752178,4602.87878742,2472.72727248,4273.69696927,873.69696961,3997.57575718,3713.21212084,3962.03030263,16.4848484832,4380.84848441,4042.9090905,5859.84848426,3424.72727238,4280.39393897,3086.78787848,4403.51515107,2860.12121184,5127.30302979,2518.06060581,4281.424242,3482.42424208,4501.39393894,3222.78787847,4237.1212117,4.1212121208,4905.27272678,2299.63636341,4514.78787834,3090.9090906,42.0,42.0,?
2017-07-31 18:53:41.757912,4591.54545409,2472.72727248,4252.57575715,873.69696961,4033.63636323,3713.21212084,3989.84848445,16.4848484832,4395.27272683,4042.9090905,5873.75757517,3424.72727238,4292.75757533,3086.78787848,4423.60606016,2860.12121184,5147.90909039,2518.06060581,4297.39393896,3482.42424208,4515.81818137,3222.78787847,4236.09090867,4.1212121208,4910.42424193,2299.63636341,4520.96969652,3090.9090906,42.0,42.0,?
2017-07-31 18:53:41.766523,4595.15151469,2472.72727248,4279.36363594,873.69696961,3994.48484809,3713.21212084,3960.9999996,16.4848484832,4365.90909047,4042.9090905,5858.30302972,3424.72727238,4260.81818139,3086.78787848,4395.27272683,2860.12121184,5113.39393888,2518.06060581,4273.18181775,3482.42424208,4497.27272682,3222.78787847,4241.75757533,4.1212121208,4896.51515103,2299.63636341,4518.39393894,3090.9090906,42.0,42.0,?
2017-07-31 18:53:41.772547,4598.24242378,2472.72727248,4252.57575715,873.69696961,4001.18181778,3713.21212084,3975.42424203,16.4848484832,4389.09090865,4042.9090905,5879.42424184,3424.72727238,4286.06060563,3086.78787848,4406.09090865,2860.12121184,5118.03030252,2518.06060581,4272.66666624,3482.42424208,4497.27272682,3222.78787847,4236.09090867,4.1212121208,4883.63636315,2299.63636341,4523.54545409,3090.9090906,42.0,42.0,?
2017-07-31 18:53:41.782144,4582.27272681,2472.72727248,4273.69696927,873.69696961,3992.93939354,3713.21212084,3960.9999996,16.4848484832,4371.06060562,4042.9090905,5867.06060547,3424.72727238,4266.48484806,3086.78787848,4381.36363593,2860.12121184,5096.39393888,2518.06060581,4247.424242,3482.42424208,4472.5454541,3222.78787847,4237.1212117,4.1212121208,4868.1818177,2299.63636341,4498.81818137,3090.9090906,42.0,42.0,?
2017-07-31 18:53:41.788573,4575.0606056,2349.09090886,4271.63636321,873.69696961,3979.54545415,3713.21212084,3947.60606021,16.4848484832,4358.69696926,4042.9090905,5865.51515093,3424.72727238,4244.84848442,3086.78787848,4364.36363593,2860.12121184,5082.99999949,2518.06060581,4249.99999958,3482.42424208,4468.93939349,3222.78787847,4235.57575715,4.1212121208,4870.24242376,2299.63636341,4493.66666622,3090.9090906,42.0,42.0,?
2017-07-31 18:53:41.802080,4589.99999954,2349.09090886,4251.54545412,848.969696885,4003.24242384,3713.21212084,3968.72727233,16.4848484832,4388.57575714,4042.9090905,5879.93939335,3424.72727238,4289.66666624,3086.78787848,4401.45454501,2860.12121184,5114.42424191,2518.06060581,4272.15151472,3482.42424208,4500.36363591,3222.78787847,4234.03030261,4.1212121208,4893.42424193,2299.63636341,4517.87878743,3090.9090906,42.0,42.0,?
2017-07-31 18:53:41.818168,4586.39393894,2349.09090886,4280.90909048,848.969696885,3991.39393899,3713.21212084,3946.06060567,16.4848484832,4362.81818138,4042.9090905,5824.81818124,3424.72727238,4274.21212078,3086.78787848,4384.96969653,2860.12121184,5093.30302979,2518.06060581,4236.60606018,3482.42424208,4474.60606016,3222.78787847,4236.60606018,4.1212121208,4880.03030254,2299.63636341,4495.21212076,2996.12121182,42.0,42.0,?
2017-07-31 18:53:41.824320,4580.72727227,2349.09090886,4253.60606018,848.969696885,3999.63636324,3799.75757538,3971.30302991,16.4848484832,4374.66666623,4042.9090905,5813.99999942,3424.72727238,4284.51515109,3086.78787848,4406.60606017,2860.12121184,5120.09090858,2518.06060581,4275.75757533,3482.42424208,4476.1515147,3222.78787847,4234.54545412,4.1212121208,4871.27272679,2299.63636341,4494.69696925,2996.12121182,42.0,42.0,?
2017-07-31 18:53:41.829929,4590.51515106,2349.09090886,4266.99999957,848.969696885,3976.96969657,3799.75757538,3966.15151475,16.4848484832,4368.99999956,4042.9090905,5796.48484791,3424.72727238,4288.12121169,3086.78787848,4412.78787835,2860.12121184,5130.39393888,2518.06060581,4291.7272723,3482.42424208,4483.36363592,3222.78787847,4242.27272685,4.1212121208,4880.03030254,2299.63636341,4507.57575713,2996.12121182,42.0,42.0,?
2017-07-31 18:53:41.830040,4583.81818136,2349.09090886,4275.75757533,848.969696885,3987.27272687,3799.75757538,3952.75757536,16.4848484832,4356.12121169,3997.57575718,5764.54545397,3424.72727238,4277.30302988,3086.78787848,4393.21212077,2860.12121184,5111.33333282,2518.06060581,4256.69696927,3482.42424208,4477.69696925,3222.78787847,4239.18181776,4.1212121208,4881.57575709,2299.63636341,4502.93939349,2996.12121182,42.0,42.0,?
2017-07-31 18:53:41.838381,4599.27272681,2349.09090886,4282.45454503,848.969696885,4050.63636323,3799.75757538,3989.33333293,16.4848484832,4345.81818138,3997.57575718,5773.30302973,3375.27272694,4299.96969654,3086.78787848,4420.51515107,2860.12121184,5117.515151,2518.06060581,4278.84848442,3482.42424208,4500.36363591,3222.78787847,4238.66666624,4.1212121208,4894.96969648,2299.63636341,4514.78787834,2996.12121182,42.0,42.0,?
2017-07-31 18:53:41.846284,4599.27272681,2349.09090886,4282.45454503,848.969696885,4021.78787839,3799.75757538,3965.12121172,16.4848484832,4345.81818138,3997.57575718,5743.42424185,3375.27272694,4269.06060563,3037.33333303,4402.48484804,2860.12121184,5117.515151,2518.06060581,4273.69696927,3482.42424208,4495.72727228,3222.78787847,4238.66666624,4.1212121208,4900.63636315,2299.63636341,4517.36363591,2996.12121182,42.0,42.0,?
2017-07-31 18:53:41.856074,4599.27272681,2349.09090886,4258.24242382,848.969696885,4033.63636323,3799.75757538,3977.9999996,16.4848484832,4366.42424199,3997.57575718,5727.9696964,3375.27272694,4279.87878745,3037.33333303,4406.09090865,2839.51515123,5128.84848434,2485.09090884,4315.93939351,3482.42424208,4508.60606016,3222.78787847,4242.78787836,4.1212121208,4898.06060557,2299.63636341,4529.72727227,2996.12121182,42.0,42.0,?
2017-07-31 18:53:41.859141,4599.27272681,2349.09090886,4258.24242382,848.969696885,4033.63636323,3799.75757538,3977.9999996,16.4848484832,4366.42424199,3997.57575718,5727.9696964,3375.27272694,4279.87878745,3037.33333303,4406.09090865,2839.51515123,5128.84848434,2485.09090884,4315.93939351,3482.42424208,4508.60606016,3222.78787847,4242.78787836,4.1212121208,4898.06060557,2299.63636341,4529.72727227,2996.12121182,42.0,42.0,?
2017-07-31 18:53:41.869878,4585.36363591,2349.09090886,4271.63636321,848.969696885,4019.21212081,3799.75757538,3962.03030263,16.4848484832,4353.03030259,3997.57575718,5711.99999943,3375.27272694,4256.18181776,3037.33333303,4380.84848441,2839.51515123,5109.78787828,2485.09090884,4293.27272684,3379.39393906,4487.99999955,3222.78787847,4235.06060564,4.1212121208,4883.63636315,2299.63636341,4516.8484844,2996.12121182,42.0,42.0,?
2017-07-31 18:53:41.875013,4575.57575712,2349.09090886,4255.66666624,848.969696885,4013.54545414,3799.75757538,3976.96969657,16.4848484832,4371.57575714,3997.57575718,5722.30302973,3375.27272694,4266.99999957,3037.33333303,4392.18181774,2839.51515123,5119.06060555,2485.09090884,4280.90909048,3379.39393906,4484.39393895,3247.51515119,4226.8181814,4.1212121208,4882.60606012,2299.63636341,4510.66666622,2996.12121182,42.0,42.0,?
2017-07-31 18:53:41.882729,4575.57575712,2349.09090886,4238.66666624,848.969696885,4027.45454505,3799.75757538,3998.60606021,16.4848484832,4391.15151471,3997.57575718,5719.72727216,3375.27272694,4294.30302987,3037.33333303,4415.87878744,2839.51515123,5132.45454494,2485.09090884,4282.96969654,3379.39393906,4500.87878743,3247.51515119,4234.54545412,12.3636363624,4898.06060557,2299.63636341,4511.69696925,2996.12121182,42.0,42.0,?
2017-07-31 18:53:41.890152,4554.96969651,2349.09090886,4318.51515108,848.969696885,3967.18181779,3799.75757538,3926.99999961,16.4848484832,4311.81818139,3997.57575718,5640.39393883,3375.27272694,4237.63636321,3037.33333303,4355.60606017,2839.51515123,5063.93939343,2485.09090884,4213.93939352,3379.39393906,4446.78787834,3247.51515119,4242.78787836,12.3636363624,4869.21212073,2262.54545432,4463.27272683,2996.12121182,42.0,42.0,?
2017-07-31 18:53:41.897963,4546.72727227,2349.09090886,4283.48484806,848.969696885,3953.78787839,3799.75757538,3913.0909087,16.4848484832,4299.45454502,3997.57575718,5623.39393883,3375.27272694,4222.69696927,3037.33333303,4332.93939351,2839.51515123,5045.39393889,2485.09090884,4210.33333291,3379.39393906,4424.12121168,3247.51515119,4230.424242,12.3636363624,4841.90909042,2262.54545432,4462.2424238,2996.12121182,42.0,42.0,?
2017-07-31 18:53:41.905594,4611.63636318,2349.09090886,4090.81818141,848.969696885,4156.75757534,3799.75757538,4129.96969656,16.4848484832,4520.454545,3997.57575718,5801.63636306,3375.27272694,4439.57575713,3037.33333303,4549.30302985,2839.51515123,5265.36363584,2485.09090884,4415.87878744,3379.39393906,4606.48484802,3255.75757543,4222.18181776,12.3636363624,4942.87878738,2262.54545432,4606.99999954,2996.12121182,42.0,42.0,?
2017-07-31 18:53:41.913933,4542.60606015,2349.09090886,4572.99999954,848.969696885,3780.69696932,3799.75757538,3729.69696932,16.4848484832,4121.72727232,3997.57575718,5461.12121158,3375.27272694,4073.81818141,3037.33333303,4203.63636322,2839.51515123,4905.7878783,2485.09090884,4032.09090869,3379.39393906,4308.21212078,3255.75757543,4260.30302988,4.1212121208,4812.54545406,2262.54545432,4368.99999956,2996.12121182,42.0,42.0,?
2017-07-31 18:53:41.921612,4438.03030259,2349.09090886,4738.8787874,848.969696885,3456.15151481,3799.75757538,3381.45454512,16.4848484832,3767.30302993,3997.57575718,5155.63636312,3375.27272694,3692.60606024,3037.33333303,3812.63636326,2839.51515123,4528.18181773,2485.09090884,3710.63636327,3379.39393906,4007.36363596,3255.75757543,4249.99999958,4.1212121208,4620.90909045,2262.54545432,4161.90909049,2996.12121182,42.0,42.0,?
2017-07-31 18:53:41.929965,4570.42424197,2349.09090886,4061.96969656,848.969696885,4073.81818141,3799.75757538,4027.45454505,16.4848484832,4402.99999956,3997.57575718,5687.78787822,3375.27272694,4298.42424199,3037.33333303,4399.39393895,2839.51515123,5148.93939342,2485.09090884,4340.66666623,3379.39393906,4513.24242379,3255.75757543,4209.30302988,4.1212121208,4856.33333285,2262.54545432,4560.63636318,2996.12121182,42.0,42.0,?
2017-07-31 18:53:41.936508,4632.24242378,2349.09090886,4157.27272686,848.969696885,4151.09090868,3799.75757538,4117.09090868,16.4848484832,4498.30302985,3997.57575718,5769.1818176,3375.27272694,4431.84848441,3037.33333303,4551.36363591,2839.51515123,5293.18181765,2485.09090884,4428.2424238,3379.39393906,4620.39393893,3255.75757543,4230.424242,4.1212121208,4952.15151466,2262.54545432,4635.84848438,2996.12121182,42.0,42.0,?
2017-07-31 18:53:41.944065,4570.42424197,2349.09090886,4370.54545411,848.969696885,3870.84848446,3799.75757538,3838.39393901,16.4848484832,4219.09090867,3997.57575718,5530.1515146,3375.27272694,4155.2121208,3037.33333303,4279.87878745,2839.51515123,5009.84848435,2485.09090884,4152.63636322,3379.39393906,4398.36363592,3255.75757543,4233.51515109,4.1212121208,4843.96969649,2262.54545432,4473.57575713,2996.12121182,42.0,42.0,?
2017-07-31 18:53:41.953676,4594.12121166,2349.09090886,4161.90909049,848.969696885,4041.36363596,3799.75757538,4023.84848445,16.4848484832,4396.81818138,3997.57575718,5665.12121155,3375.27272694,4314.39393896,3037.33333303,4438.5454541,2839.51515123,5172.63636312,2485.09090884,4327.27272684,3379.39393906,4536.42424197,3255.75757543,4220.63636321,4.1212121208,4906.30302981,2262.54545432,4570.93939348,2996.12121182,42.0,42.0,?
2017-07-31 18:53:41.960527,4602.3636359,2349.09090886,4231.45454503,848.969696885,4037.75757535,3799.75757538,4010.96969657,16.4848484832,4392.18181774,3997.57575718,5644.51515095,3375.27272694,4312.84848442,3037.33333303,4440.60606016,2839.51515123,5170.06060554,2485.09090884,4319.54545411,3379.39393906,4542.09090864,3255.75757543,4230.424242,4.1212121208,4922.27272678,2262.54545432,4564.7575753,2996.12121182,42.0,42.0,?
2017-07-31 18:53:41.972054,4588.96969651,2349.09090886,4243.81818139,848.969696885,4002.72727233,3799.75757538,3969.24242385,16.4848484832,4354.57575714,3997.57575718,5608.96969641,3375.27272694,4286.57575715,3037.33333303,4404.03030259,2839.51515123,5134.515151,2485.09090884,4289.15151472,3379.39393906,4508.60606016,3255.75757543,4227.84848443,4.1212121208,4901.66666618,2262.54545432,4537.454545,2996.12121182,42.0,42.0,?
2017-07-31 18:53:41.979771,4595.15151469,2349.09090886,4223.7272723,848.969696885,4018.6969693,3799.75757538,3991.39393899,16.4848484832,4370.03030259,3997.57575718,5621.33333277,3375.27272694,4301.51515109,3037.33333303,4428.2424238,2839.51515123,5162.84848433,2485.09090884,4317.48484805,3379.39393906,4525.09090864,3255.75757543,4227.84848443,4.1212121208,4907.33333284,2262.54545432,4549.81818136,2996.12121182,42.0,42.0,?
2017-07-31 18:53:41.985950,4601.33333287,2349.09090886,4247.93939351,848.969696885,3993.96969657,3799.75757538,3967.6969693,16.4848484832,4344.27272684,3997.57575718,5595.57575702,3375.27272694,4259.78787836,3037.33333303,4397.33333289,2839.51515123,5130.39393888,2485.09090884,4276.78787836,3379.39393906,4513.24242379,3255.75757543,4230.424242,4.1212121208,4905.7878783,2262.54545432,4542.60606015,2996.12121182,42.0,42.0,?
2017-07-31 18:53:41.992517,4596.18181772,2349.09090886,4227.33333291,848.969696885,4015.6060602,3799.75757538,3981.60606021,16.4848484832,4366.9393935,3997.57575718,5615.15151459,3375.27272694,4285.0303026,3037.33333303,4412.78787835,2839.51515123,5144.8181813,2485.09090884,4279.87878745,3379.39393906,4518.39393894,3255.75757543,4227.33333291,4.1212121208,4908.36363587,2262.54545432,4547.7575753,2996.12121182,42.0,42.0,?
2017-07-31 18:53:42.003523,4594.63636318,2349.09090886,4240.7272723,848.969696885,4001.18181778,3799.75757538,3968.72727233,16.4848484832,4357.15151472,3997.57575718,5611.03030247,3375.27272694,4282.96969654,3037.33333303,4405.06060562,2839.51515123,5139.15151464,2485.09090884,4285.0303026,3379.39393906,4497.27272682,3255.75757543,4228.87878746,4.1212121208,4896.51515103,2262.54545432,4542.09090864,2996.12121182,42.0,42.0,?
2017-07-31 18:53:42.007069,4601.84848439,2349.09090886,4236.60606018,848.969696885,3984.6969693,3799.75757538,3974.393939,16.4848484832,4354.57575714,3997.57575718,5605.87878732,3375.27272694,4278.33333291,3037.33333303,4401.45454501,2839.51515123,5134.515151,2485.09090884,4283.99999957,3379.39393906,4492.12121167,3255.75757543,4228.87878746,4.1212121208,4888.27272678,2262.54545432,4541.06060561,2996.12121182,42.0,42.0,?
2017-07-31 18:53:42.016470,4593.09090863,2349.09090886,4233.51515109,848.969696885,3990.87878748,3799.75757538,3983.15151475,16.4848484832,4362.81818138,3997.57575718,5605.87878732,3375.27272694,4290.18181775,3037.33333303,4411.2424238,2839.51515123,5137.60606009,2485.09090884,4268.54545412,3379.39393906,4501.90909046,3255.75757543,4227.33333291,4.1212121208,4890.33333284,2262.54545432,4539.51515106,2996.12121182,42.0,42.0,?
2017-07-31 18:53:42.022750,4580.21212075,2349.09090886,4243.81818139,848.969696885,3992.42424203,3799.75757538,3963.06060566,16.4848484832,4349.42424199,3997.57575718,5594.54545399,3375.27272694,4270.09090866,3037.33333303,4394.2424238,2839.51515123,5124.72727221,2485.09090884,4261.33333291,3379.39393906,4492.12121167,3255.75757543,4225.27272685,4.1212121208,4889.30302981,2262.54545432,4531.78787833,2996.12121182,42.0,42.0,?
2017-07-31 18:53:42.033403,4583.30302984,2349.09090886,4230.93939352,848.969696885,3990.87878748,3799.75757538,3970.78787839,16.4848484832,4355.09090866,3997.57575718,5607.93939338,3375.27272694,4270.09090866,3037.33333303,4390.12121168,2839.51515123,5126.27272676,2485.09090884,4273.69696927,3379.39393906,4486.96969652,3255.75757543,4221.66666624,4.1212121208,4885.69696921,2262.54545432,4533.8484844,2996.12121182,42.0,42.0,?
2017-07-31 18:53:42.039115,4593.09090863,2349.09090886,4238.15151473,848.969696885,3969.24242385,3799.75757538,3970.27272688,16.4848484832,4354.57575714,3997.57575718,5608.96969641,3375.27272694,4274.21212078,3037.33333303,4383.9393935,2839.51515123,5120.60606009,2485.09090884,4254.63636321,3379.39393906,4482.33333289,3255.75757543,4227.33333291,4.1212121208,4885.18181769,2262.54545432,4530.24242379,2996.12121182,42.0,42.0,?
2017-07-31 18:53:42.048093,4573.51515106,2349.09090886,4240.21212079,848.969696885,3967.18181779,3799.75757538,3963.06060566,16.4848484832,4350.96969653,3997.57575718,5595.57575702,3375.27272694,4265.96969654,3037.33333303,4379.81818138,2839.51515123,5110.81818131,2485.09090884,4244.33333291,3379.39393906,4470.48484804,3255.75757543,4227.33333291,4.1212121208,4875.39393891,2262.54545432,4508.09090864,2996.12121182,42.0,42.0,?
2017-07-31 18:53:42.054845,4550.33333288,2349.09090886,4228.87878746,848.969696885,3979.54545415,3799.75757538,3972.33333294,16.4848484832,4358.18181775,3997.57575718,5599.69696914,3375.27272694,4270.60606018,3037.33333303,4393.72727229,2839.51515123,5114.42424191,2485.09090884,4255.66666624,3379.39393906,4466.87878743,3255.75757543,4224.24242382,4.1212121208,4867.66666618,2262.54545432,4497.78787834,2996.12121182,42.0,42.0,?
2017-07-31 18:53:42.061970,4562.69696924,2349.09090886,4237.63636321,848.969696885,3955.33333294,3799.75757538,3959.45454506,16.4848484832,4345.30302987,3997.57575718,5596.09090853,3375.27272694,4257.7272723,3037.33333303,4379.81818138,2839.51515123,5104.12121161,2485.09090884,4237.63636321,3379.39393906,4466.36363592,3255.75757543,4227.33333291,4.1212121208,4874.36363588,2262.54545432,4503.96969652,2996.12121182,42.0,42.0,?
2017-07-31 18:53:42.072234,4577.63636318,2349.09090886,4230.424242,848.969696885,3958.93939354,3799.75757538,3966.66666627,16.4848484832,4357.66666623,3997.57575718,5604.33333277,3375.27272694,4256.18181776,3037.33333303,4380.3333329,2839.51515123,5114.93939343,2485.09090884,4240.7272723,3379.39393906,4475.12121167,3255.75757543,4224.75757534,4.1212121208,4877.96969648,2262.54545432,4515.30302985,2996.12121182,42.0,42.0,?
2017-07-31 18:53:42.079001,4583.81818136,2349.09090886,4237.1212117,848.969696885,3966.66666627,3799.75757538,3972.33333294,16.4848484832,4359.21212078,3997.57575718,5613.09090853,3375.27272694,4268.54545412,3037.33333303,4394.2424238,2839.51515123,5128.33333282,2485.09090884,4261.33333291,3379.39393906,4478.21212076,3255.75757543,4228.36363594,4.1212121208,4879.51515103,2262.54545432,4525.09090864,2996.12121182,42.0,42.0,?
2017-07-31 18:53:42.088948,4583.30302984,2349.09090886,4245.87878745,848.969696885,3957.90909051,3799.75757538,3954.81818142,16.4848484832,4340.66666623,3997.57575718,5614.12121156,3375.27272694,4278.84848442,3037.33333303,4397.33333289,2839.51515123,5126.78787828,2485.09090884,4261.84848442,3379.39393906,4478.21212076,3255.75757543,4229.39393897,4.1212121208,4885.18181769,2262.54545432,4528.18181773,2996.12121182,42.0,42.0,?
2017-07-31 18:53:42.097161,4576.09090863,2349.09090886,4240.21212079,848.969696885,3959.96969657,3799.75757538,3952.75757536,16.4848484832,4343.24242381,3997.57575718,5616.69696914,3375.27272694,4261.33333291,3037.33333303,4380.3333329,2839.51515123,5107.72727222,2485.09090884,4239.69696927,3379.39393906,4486.45454501,3255.75757543,4226.8181814,4.1212121208,4897.03030254,2262.54545432,4533.33333288,2996.12121182,42.0,42.0,?
2017-07-31 18:53:42.105754,4576.09090863,2349.09090886,4240.21212079,848.969696885,3959.96969657,3799.75757538,3952.75757536,16.4848484832,4343.24242381,3997.57575718,5593.51515096,3375.27272694,4261.33333291,3037.33333303,4380.3333329,2839.51515123,5107.72727222,2485.09090884,4239.69696927,3379.39393906,4486.45454501,3255.75757543,4226.8181814,4.1212121208,4897.03030254,2262.54545432,4524.57575712,2996.12121182,42.0,42.0,?
2017-07-31 18:53:42.109889,4558.0606056,2349.09090886,4233.51515109,848.969696885,3958.93939354,3799.75757538,3953.78787839,16.4848484832,4342.72727229,3997.57575718,5597.63636308,3375.27272694,4253.09090867,3037.33333303,4372.60606017,2839.51515123,5095.36363585,2485.09090884,4230.93939352,3379.39393906,4463.78787834,3255.75757543,4224.75757534,4.1212121208,4874.87878739,2262.54545432,4507.57575713,2996.12121182,42.0,42.0,?
2017-07-31 18:53:42.130157,4579.18181772,2349.09090886,4241.75757533,848.969696885,3957.90909051,3799.75757538,3964.60606021,16.4848484832,4342.21212078,3997.57575718,5617.72727217,3375.27272694,4270.09090866,3037.33333303,4386.51515108,2839.51515123,5123.69696918,2485.09090884,4263.90909048,3379.39393906,4462.75757531,3255.75757543,4226.8181814,4.1212121208,4870.24242376,2262.54545432,4514.78787834,2996.12121182,42.0,42.0,?
2017-07-31 18:53:42.130390,4579.18181772,2349.09090886,4241.75757533,848.969696885,3957.90909051,3799.75757538,3964.60606021,16.4848484832,4342.21212078,3997.57575718,5611.03030247,3375.27272694,4274.21212078,3037.33333303,4387.03030259,2839.51515123,5123.69696918,2485.09090884,4263.90909048,3379.39393906,4474.60606016,3255.75757543,4226.8181814,4.1212121208,4883.63636315,2262.54545432,4530.7575753,2996.12121182,42.0,42.0,?
2017-07-31 18:53:42.134641,4574.03030257,2349.09090886,4247.424242,848.969696885,3980.57575718,3799.75757538,3968.72727233,16.4848484832,4346.84848441,3997.57575718,5615.66666611,3375.27272694,4275.24242381,3037.33333303,4388.06060562,2839.51515123,5113.9090904,2485.09090884,4243.81818139,3379.39393906,4490.06060561,3255.75757543,4230.93939352,4.1212121208,4897.03030254,2262.54545432,4533.33333288,2996.12121182,42.0,42.0,?
2017-07-31 18:53:42.143979,4574.03030257,2349.09090886,4247.424242,848.969696885,3980.57575718,3799.75757538,3968.72727233,16.4848484832,4346.84848441,3997.57575718,5619.27272671,3375.27272694,4257.7272723,3037.33333303,4388.06060562,2839.51515123,5113.9090904,2485.09090884,4243.81818139,3379.39393906,4490.06060561,3255.75757543,4230.93939352,4.1212121208,4897.03030254,2262.54545432,4530.7575753,2996.12121182,42.0,42.0,?
2017-07-31 18:53:42.150386,4581.24242378,2349.09090886,4240.21212079,848.969696885,3979.03030263,3799.75757538,3968.21212082,16.4848484832,4347.87878744,3997.57575718,5628.54545398,3375.27272694,4265.96969654,3037.33333303,4392.69696926,2839.51515123,5129.87878737,2485.09090884,4258.75757533,3379.39393906,4498.81818137,3255.75757543,4229.90909049,4.1212121208,4902.18181769,2262.54545432,4534.87878743,2996.12121182,42.0,42.0,?
2017-07-31 18:53:42.155870,4576.09090863,2349.09090886,4233.51515109,848.969696885,3990.87878748,3799.75757538,3974.90909051,16.4848484832,4350.96969653,3997.57575718,5635.75757519,3375.27272694,4284.51515109,3037.33333303,4406.09090865,2839.51515123,5154.60606009,2485.09090884,4287.60606018,3379.39393906,4505.51515106,3255.75757543,4228.87878746,4.1212121208,4905.7878783,2262.54545432,4534.87878743,2996.12121182,42.0,42.0,?
2017-07-31 18:53:42.162878,4580.72727227,2349.09090886,4243.81818139,848.969696885,3977.9999996,3799.75757538,3963.57575718,16.4848484832,4344.78787835,3997.57575718,5634.72727216,3375.27272694,4270.60606018,3037.33333303,4398.87878744,2839.51515123,5146.87878736,2485.09090884,4285.0303026,3379.39393906,4499.8484844,3255.75757543,4229.39393897,4.1212121208,4898.57575709,2262.54545432,4534.87878743,2996.12121182,42.0,42.0,?
2017-07-31 18:53:42.172610,4591.54545409,2349.09090886,4233.51515109,848.969696885,3963.57575718,3799.75757538,3965.63636324,16.4848484832,4354.57575714,3997.57575718,5646.57575701,3375.27272694,4272.15151472,3037.33333303,4401.45454501,2839.51515123,5145.33333282,2485.09090884,4270.60606018,3379.39393906,4511.18181773,3255.75757543,4226.30302988,4.1212121208,4903.21212072,2262.54545432,4548.27272682,2996.12121182,42.0,42.0,?
2017-07-31 18:53:42.179492,4584.33333287,2349.09090886,4243.30302988,848.969696885,3965.63636324,3799.75757538,3958.42424203,16.4848484832,4348.90909047,3997.57575718,5643.48484792,3375.27272694,4268.0303026,3037.33333303,4395.27272683,2839.51515123,5136.06060555,2485.09090884,4257.21212079,3379.39393906,4512.72727228,3255.75757543,4230.93939352,4.1212121208,4910.42424193,2262.54545432,4545.18181773,2996.12121182,42.0,42.0,?
2017-07-31 18:53:42.186868,4578.66666621,2349.09090886,4242.78787836,848.969696885,3983.66666627,3799.75757538,3959.96969657,16.4848484832,4350.45454502,3997.57575718,5655.84848428,3375.27272694,4275.24242381,3037.33333303,4400.42424198,2839.51515123,5137.60606009,2485.09090884,4274.21212078,3379.39393906,4502.93939349,3255.75757543,4229.90909049,4.1212121208,4900.63636315,2262.54545432,4538.48484803,2996.12121182,42.0,42.0,?
2017-07-31 18:53:42.195153,4597.21212075,2349.09090886,4238.66666624,848.969696885,3986.24242384,3799.75757538,3971.30302991,16.4848484832,4358.69696926,3997.57575718,5669.75757519,3375.27272694,4292.24242381,3037.33333303,4414.33333289,2839.51515123,5147.90909039,2485.09090884,4287.09090866,3379.39393906,4506.03030258,3255.75757543,4226.8181814,4.1212121208,4900.12121163,2262.54545432,4552.90909045,2996.12121182,42.0,42.0,?
2017-07-31 18:53:42.208373,4603.90909045,2349.09090886,4249.48484806,848.969696885,3981.09090869,3799.75757538,3966.15151475,16.4848484832,4348.39393896,3997.57575718,5655.33333277,3375.27272694,4275.24242381,3037.33333303,4399.39393895,2839.51515123,5137.60606009,2485.09090884,4261.84848442,3379.39393906,4507.57575713,3255.75757543,4229.39393897,4.1212121208,4907.84848436,2262.54545432,4555.99999954,2996.12121182,42.0,42.0,?
2017-07-31 18:53:42.211600,4588.96969651,2349.09090886,4234.03030261,848.969696885,3987.27272687,3799.75757538,3972.33333294,16.4848484832,4354.57575714,3997.57575718,5658.42424186,3375.27272694,4264.424242,3037.33333303,4395.78787835,2839.51515123,5137.60606009,2485.09090884,4264.93939351,3379.39393906,4504.48484803,3255.75757543,4224.75757534,4.1212121208,4897.03030254,2262.54545432,4543.12121167,2996.12121182,42.0,42.0,?
2017-07-31 18:53:42.217992,4584.33333287,2349.09090886,4237.1212117,848.969696885,3958.93939354,3799.75757538,3958.42424203,16.4848484832,4347.87878744,3997.57575718,5652.24242368,3375.27272694,4255.15151473,3037.33333303,4382.39393896,2839.51515123,5122.66666615,2485.09090884,4272.66666624,3379.39393906,4490.06060561,3255.75757543,4226.8181814,4.1212121208,4884.66666618,2262.54545432,4530.7575753,2996.12121182,42.0,42.0,?
2017-07-31 18:53:42.227848,4577.63636318,2349.09090886,4243.81818139,848.969696885,3959.45454506,3799.75757538,3952.75757536,16.4848484832,4347.36363593,3997.57575718,5639.3636358,3375.27272694,4259.78787836,3037.33333303,4372.60606017,2839.51515123,5114.42424191,2485.09090884,4274.21212078,3379.39393906,4477.18181773,3255.75757543,4227.84848443,4.1212121208,4882.0909086,2262.54545432,4529.21212076,2996.12121182,42.0,42.0,?
2017-07-31 18:53:42.234546,4574.03030257,2349.09090886,4240.21212079,848.969696885,4002.21212081,3799.75757538,3971.30302991,16.4848484832,4355.60606017,3997.57575718,5637.30302974,3375.27272694,4269.06060563,3037.33333303,4387.03030259,2839.51515123,5131.42424191,2485.09090884,4275.75757533,3379.39393906,4485.93939349,3255.75757543,4226.8181814,4.1212121208,4890.33333284,2262.54545432,4535.90909046,2996.12121182,42.0,42.0,?
2017-07-31 18:53:42.241380,4598.24242378,2349.09090886,4248.96969654,848.969696885,3984.6969693,3799.75757538,3963.06060566,16.4848484832,4337.06060563,3997.57575718,5626.48484792,3375.27272694,4258.24242382,3037.33333303,4385.99999956,2839.51515123,5124.2121207,2485.09090884,4248.96969654,3379.39393906,4504.48484803,3255.75757543,4231.96969655,4.1212121208,4912.99999951,2262.54545432,4541.57575712,2996.12121182,42.0,42.0,?
2017-07-31 18:53:42.252403,4607.51515105,2349.09090886,4237.1212117,848.969696885,3965.63636324,3799.75757538,3964.60606021,16.4848484832,4342.72727229,3997.57575718,5627.51515095,3375.27272694,4278.33333291,3037.33333303,4397.33333289,2839.51515123,5135.54545403,2485.09090884,4252.06060564,3379.39393906,4511.18181773,3255.75757543,4229.39393897,4.1212121208,4913.51515102,2262.54545432,4542.09090864,2996.12121182,42.0,42.0,?
2017-07-31 18:53:42.259137,4589.99999954,2349.09090886,4238.15151473,848.969696885,3966.66666627,3799.75757538,3959.45454506,16.4848484832,4342.21212078,3997.57575718,5613.60606004,3375.27272694,4277.30302988,3037.33333303,4394.2424238,2839.51515123,5145.84848433,2485.09090884,4274.7272723,3379.39393906,4492.63636319,3255.75757543,4229.90909049,4.1212121208,4891.87878739,2262.54545432,4529.72727227,2996.12121182,42.0,42.0,?
2017-07-31 18:53:42.265737,4572.48484803,2349.09090886,4239.18181776,848.969696885,3958.93939354,3799.75757538,3950.18181779,16.4848484832,4332.93939351,3997.57575718,5596.60606005,3375.27272694,4251.54545412,3037.33333303,4383.9393935,2839.51515123,5132.96969646,2485.09090884,4277.30302988,3379.39393906,4483.87878743,3255.75757543,4231.96969655,4.1212121208,4887.75757527,2262.54545432,4515.30302985,2996.12121182,42.0,42.0,?
2017-07-31 18:53:42.273520,4565.78787833,2349.09090886,4232.48484806,848.969696885,3957.393939,3799.75757538,3959.45454506,16.4848484832,4345.81818138,3997.57575718,5604.84848429,3375.27272694,4265.96969654,3037.33333303,4400.9393935,2839.51515123,5136.06060555,2485.09090884,4270.09090866,3379.39393906,4490.06060561,3255.75757543,4227.84848443,4.1212121208,4892.90909042,2262.54545432,4510.66666622,2996.12121182,42.0,42.0,?
2017-07-31 18:53:42.281002,4572.99999954,2349.09090886,4247.424242,848.969696885,3940.393939,3799.75757538,3946.06060567,16.4848484832,4337.06060563,3997.57575718,5596.60606005,3375.27272694,4271.63636321,3037.33333303,4392.69696926,2839.51515123,5130.39393888,2485.09090884,4244.84848442,3379.39393906,4480.78787834,3255.75757543,4226.8181814,4.1212121208,4887.75757527,2262.54545432,4507.06060561,2996.12121182,42.0,42.0,?
2017-07-31 18:53:42.288186,4572.48484803,2349.09090886,4238.66666624,848.969696885,3951.21212082,3799.75757538,3952.75757536,16.4848484832,4341.18181775,3997.57575718,5592.48484793,3375.27272694,4266.48484806,3037.33333303,4387.54545411,2839.51515123,5127.81818131,2485.09090884,4233.51515109,3379.39393906,4480.78787834,3255.75757543,4225.27272685,4.1212121208,4883.12121163,2262.54545432,4504.99999955,2996.12121182,42.0,42.0,?
2017-07-31 18:53:42.295735,4570.93939348,2534.54545429,4236.09090867,848.969696885,3966.66666627,3799.75757538,3965.63636324,16.4848484832,4351.99999956,3997.57575718,5589.90909035,3375.27272694,4255.66666624,3037.33333303,4394.2424238,2839.51515123,5126.27272676,2485.09090884,4246.90909048,3379.39393906,4477.69696925,3255.75757543,4230.93939352,4.1212121208,4877.45454497,2262.54545432,4505.51515106,2996.12121182,42.0,42.0,?
2017-07-31 18:53:42.305819,4582.27272681,2534.54545429,4241.24242382,902.545454455,3942.96969658,3799.75757538,3953.78787839,16.4848484832,4346.3333329,3997.57575718,5581.66666611,3375.27272694,4252.06060564,3037.33333303,4388.57575714,2839.51515123,5124.2121207,2485.09090884,4256.69696927,3379.39393906,4469.45454501,3255.75757543,4229.39393897,4.1212121208,4872.30302982,2262.54545432,4509.12121167,2996.12121182,42.0,42.0,?
2017-07-31 18:53:42.312613,4580.72727227,2534.54545429,4234.54545412,902.545454455,3941.93939355,3799.75757538,3954.30302991,16.4848484832,4349.42424199,3997.57575718,5591.4545449,3375.27272694,4272.15151472,3037.33333303,4390.6363632,2839.51515123,5133.48484797,2485.09090884,4247.93939351,3379.39393906,4478.21212076,3255.75757543,4224.24242382,4.1212121208,4876.93939345,2262.54545432,4513.75757531,3206.30302998,42.0,42.0,?
2017-07-31 18:53:42.321595,4571.96969651,2534.54545429,4247.93939351,902.545454455,3959.96969657,3886.30302991,3952.75757536,16.4848484832,4338.60606017,3997.57575718,5583.72727217,3375.27272694,4259.78787836,3037.33333303,4379.30302987,2839.51515123,5115.96969646,2485.09090884,4226.30302988,3379.39393906,4468.93939349,3255.75757543,4229.39393897,4.1212121208,4870.75757527,2262.54545432,4506.54545409,3206.30302998,42.0,42.0,?
2017-07-31 18:53:42.327807,4569.39393894,2534.54545429,4239.18181776,902.545454455,3976.45454506,3886.30302991,3962.03030263,53.5757575704,4342.21212078,3997.57575718,5580.63636308,3375.27272694,4253.09090867,3037.33333303,4378.78787835,2839.51515123,5114.42424191,2485.09090884,4246.90909048,3379.39393906,4456.57575713,3255.75757543,4226.30302988,4.1212121208,4858.39393891,2262.54545432,4501.90909046,3206.30302998,42.0,42.0,?
2017-07-31 18:53:42.336958,4589.99999954,2534.54545429,4236.60606018,902.545454455,3971.30302991,3886.30302991,3968.21212082,53.5757575704,4349.9393935,4125.33333292,5586.81818126,3375.27272694,4265.96969654,3037.33333303,4386.51515108,2839.51515123,5124.72727221,2485.09090884,4259.27272685,3379.39393906,4481.81818137,3255.75757543,4225.78787837,4.1212121208,4880.03030254,2262.54545432,4524.06060561,3206.30302998,42.0,42.0,?
2017-07-31 18:53:42.347369,4601.84848439,2534.54545429,4248.45454503,902.545454455,3969.24242385,3886.30302991,3964.09090869,53.5757575704,4345.30302987,4125.33333292,5584.7575752,3564.84848449,4263.39393897,3037.33333303,4387.54545411,2839.51515123,5121.63636312,2485.09090884,4241.24242382,3379.39393906,4501.39393894,3255.75757543,4229.39393897,4.1212121208,4897.54545406,2262.54545432,4542.60606015,3206.30302998,42.0,42.0,?
2017-07-31 18:53:42.353778,4585.87878742,2534.54545429,4235.57575715,902.545454455,3983.15151475,3886.30302991,3972.84848445,53.5757575704,4359.72727229,4125.33333292,5592.48484793,3564.84848449,4272.15151472,3132.12121181,4404.03030259,2839.51515123,5142.24242373,2485.09090884,4256.18181776,3379.39393906,4483.36363592,3255.75757543,4225.78787837,4.1212121208,4880.54545406,2262.54545432,4532.81818136,3206.30302998,42.0,42.0,?
2017-07-31 18:53:42.359406,4577.12121166,2534.54545429,4242.27272685,902.545454455,3968.72727233,3886.30302991,3957.90909051,53.5757575704,4351.48484805,4125.33333292,5582.69696914,3564.84848449,4264.93939351,3132.12121181,4394.2424238,2971.3939391,5136.06060555,2485.09090884,4246.39393897,3379.39393906,4460.69696925,3255.75757543,4228.36363594,4.1212121208,4872.81818133,2262.54545432,4513.75757531,3206.30302998,42.0,42.0,?
2017-07-31 18:53:42.368894,4571.454545,2534.54545429,4241.24242382,902.545454455,3973.36363597,3886.30302991,3955.84848445,53.5757575704,4343.24242381,4125.33333292,5577.03030247,3564.84848449,4257.21212079,3132.12121181,4385.48484805,2971.3939391,5123.69696918,2596.3636361,4236.60606018,3379.39393906,4461.72727228,3255.75757543,4226.8181814,4.1212121208,4870.75757527,2262.54545432,4506.54545409,3206.30302998,42.0,42.0,?
2017-07-31 18:53:42.373734,4579.18181772,2534.54545429,4238.15151473,902.545454455,3976.45454506,3886.30302991,3962.03030263,53.5757575704,4349.9393935,4125.33333292,5582.18181762,3564.84848449,4268.54545412,3132.12121181,4399.39393895,2971.3939391,5136.57575706,2596.3636361,4260.81818139,3395.87878754,4479.75757531,3255.75757543,4228.87878746,4.1212121208,4878.484848,2262.54545432,4518.39393894,3206.30302998,42.0,42.0,?
2017-07-31 18:53:42.382143,4585.87878742,2534.54545429,4247.424242,902.545454455,3946.57575718,3886.30302991,3948.63636324,53.5757575704,4344.27272684,4125.33333292,5575.48484793,3564.84848449,4266.99999957,3132.12121181,4395.78787835,2971.3939391,5141.72727221,2596.3636361,4255.66666624,3395.87878754,4497.27272682,3523.63636328,4232.99999958,4.1212121208,4903.21212072,2262.54545432,4519.42424197,3206.30302998,42.0,42.0,?
2017-07-31 18:53:42.393992,4570.42424197,2534.54545429,4238.66666624,902.545454455,3957.90909051,3886.30302991,3962.03030263,53.5757575704,4350.45454502,4125.33333292,5577.03030247,3564.84848449,4274.21212078,3132.12121181,4401.45454501,2971.3939391,5153.06060555,2596.3636361,4252.06060564,3395.87878754,4499.8484844,3523.63636328,4226.30302988,8.2424242416,4898.57575709,2262.54545432,4511.18181773,3206.30302998,42.0,42.0,?
2017-07-31 18:53:42.399658,4574.54545409,2534.54545429,4247.93939351,902.545454455,3959.45454506,3886.30302991,3957.90909051,53.5757575704,4341.18181775,4125.33333292,5569.30302975,3564.84848449,4274.21212078,3132.12121181,4398.87878744,2971.3939391,5139.15151464,2596.3636361,4259.78787836,3395.87878754,4475.63636319,3523.63636328,4226.8181814,8.2424242416,4875.90909042,2419.15151491,4516.33333288,3206.30302998,42.0,42.0,?
2017-07-31 18:53:42.408269,4589.48484803,2534.54545429,4245.36363594,902.545454455,3948.63636324,3886.30302991,3947.0909087,53.5757575704,4335.51515108,4125.33333292,5570.84848429,3564.84848449,4275.24242381,3132.12121181,4391.15151471,2971.3939391,5124.72727221,2596.3636361,4263.39393897,3404.12121178,4473.06060561,3523.63636328,4228.36363594,8.2424242416,4878.484848,2419.15151491,4526.12121167,3206.30302998,42.0,42.0,?
