Timestamp,F3 Value,F3 Quality,FC5 Value,FC5 Quality,F7 Value,F7 Quality,T7 Value,T7 Quality,P7 Value,P7 Quality,O1 Value,O1 Quality,O2 Value,O2 Quality,P8 Value,P8 Quality,T8 Value,T8 Quality,F8 Value,F8 Quality,AF4 Value,AF4 Quality,FC6 Value,FC6 Quality,F4 Value,F4 Quality,AF3 Value,AF3 Quality,X Value,Y Value,Z Value
2017-07-31 18:11:50.473293,4528.18181773,0,4201.57575716,0,3936.78787839,0,3922.87878749,0,4281.424242,0,4424.12121168,0,4191.27272685,0,4348.90909047,0,4958.84848435,0,4156.24242383,0,4390.6363632,0,4297.90909048,0,4837.7878783,0,4544.1515147,0,42.0,42.0,?
2017-07-31 18:11:50.475805,4528.18181773,0,4201.57575716,0,3936.78787839,0,3922.87878749,0,4281.424242,0,4424.12121168,0,4191.27272685,0,4348.90909047,0,4958.84848435,0,4156.24242383,0,4390.6363632,0,4297.90909048,0,4837.7878783,0,4544.1515147,0,42.0,42.0,?
2017-07-31 18:11:50.479171,4528.18181773,0,4201.57575716,0,3936.78787839,0,3922.87878749,0,4281.424242,0,4424.12121168,0,4191.27272685,0,4348.90909047,0,4958.84848435,0,4156.24242383,0,4390.6363632,0,4297.90909048,0,4837.7878783,0,4544.1515147,0,42.0,42.0,?
2017-07-31 18:11:50.483660,4528.18181773,0,4203.1212117,0,3934.72727233,0,3942.45454506,0,4279.36363594,0,4424.12121168,0,4188.69696928,0,4349.42424199,0,4953.18181769,0,4154.69696928,0,4391.66666623,0,4298.93939351,0,4839.84848436,0,4543.12121167,0,42.0,42.0,?
2017-07-31 18:11:50.492951,4524.06060561,0,4201.06060564,0,3929.57575718,0,3939.36363597,0,4278.84848442,0,4421.5454541,0,4184.06060564,0,4342.21212078,0,4946.99999951,0,4151.60606019,0,4393.21212077,0,4298.42424199,0,4841.90909042,0,4544.1515147,0,42.0,42.0,?
2017-07-31 18:11:50.497276,4520.454545,0,4204.15151473,0,3923.90909052,0,3921.84848446,0,4279.36363594,0,4422.57575713,0,4184.06060564,0,4338.09090866,0,4940.30302981,0,4144.39393898,0,4387.03030259,0,4296.36363593,0,4840.87878739,0,4542.09090864,0,42.0,42.0,?
2017-07-31 18:11:50.500843,4524.57575712,0,4198.48484806,0,3930.60606021,0,3934.72727233,0,4290.69696927,0,4431.33333289,0,4192.8181814,0,4348.90909047,0,4948.54545405,0,4147.48484807,0,4385.99999956,0,4292.75757533,0,4832.12121164,0,4543.12121167,0,42.0,42.0,?
2017-07-31 18:11:50.503021,4527.66666621,0,4201.06060564,0,3932.15151476,0,3941.93939355,0,4298.42424199,0,4433.39393895,0,4196.424242,0,4353.54545411,0,4958.33333284,0,4154.18181777,0,4395.27272683,0,4296.87878745,0,4842.93939346,0,4545.69696924,0,42.0,42.0,?
2017-07-31 18:11:50.514467,4525.60606015,0,4200.54545413,0,3929.06060567,0,3933.18181779,0,4296.87878745,0,4431.33333289,0,4197.45454503,0,4353.03030259,0,4958.84848435,0,4159.84848443,0,4398.36363592,0,4296.87878745,0,4839.33333285,0,4544.66666621,0,42.0,42.0,?
2017-07-31 18:11:50.518737,4524.57575712,0,4198.48484806,0,3928.54545415,0,3936.27272688,0,4294.81818139,0,4434.9393935,0,4200.03030261,0,4354.57575714,0,4952.66666617,0,4162.93939352,0,4397.33333289,0,4296.87878745,0,4835.72727224,0,4545.18181773,0,42.0,42.0,?
2017-07-31 18:11:50.522213,4520.454545,0,4203.63636322,0,3923.393939,0,3927.51515112,0,4291.21212078,0,4434.42424198,0,4190.75757534,0,4348.39393896,0,4942.36363587,0,4156.75757534,0,4394.75757532,0,4299.96969654,0,4841.39393891,0,4545.18181773,0,42.0,42.0,?
2017-07-31 18:11:50.526925,4524.06060561,0,4198.48484806,0,3922.36363597,0,3918.75757537,0,4289.66666624,0,4428.2424238,0,4183.03030261,0,4346.84848441,0,4940.81818132,0,4156.24242383,0,4395.78787835,0,4297.39393896,0,4831.09090861,0,4544.66666621,0,42.0,42.0,?
2017-07-31 18:11:50.530042,4529.72727227,0,4201.57575716,0,3927.51515112,0,3936.78787839,0,4287.60606018,0,4426.69696925,0,4185.09090867,0,4349.42424199,0,4943.3939389,0,4163.45454504,0,4400.9393935,0,4299.45454502,0,4835.72727224,0,4550.33333288,0,42.0,42.0,?
2017-07-31 18:11:50.533325,4526.12121167,0,4202.60606019,0,3928.03030264,0,3956.87878748,0,4290.18181775,0,4430.30302986,0,4191.27272685,0,4345.30302987,0,4944.42424193,0,4164.48484807,0,4399.39393895,0,4297.90909048,0,4833.15151467,0,4555.48484803,0,42.0,42.0,?
2017-07-31 18:11:50.537773,4520.96969652,0,4201.06060564,0,3923.393939,0,3942.96969658,0,4290.18181775,0,4432.87878744,0,4193.84848443,0,4344.78787835,0,4943.90909041,0,4158.30302989,0,4394.75757532,0,4294.81818139,0,4829.03030255,0,4555.99999954,0,42.0,42.0,?
2017-07-31 18:11:50.541429,4521.48484803,0,4204.15151473,0,3921.84848446,0,3926.99999961,0,4285.54545412,0,4429.78787834,0,4188.69696928,0,4345.81818138,0,4943.3939389,0,4156.75757534,0,4393.72727229,0,4296.87878745,0,4837.27272679,0,4556.51515106,0,42.0,42.0,?
2017-07-31 18:11:50.545787,4526.63636318,0,4196.424242,0,3930.60606021,0,3943.48484809,0,4287.60606018,0,4424.12121168,0,4188.18181776,0,4342.72727229,0,4944.93939344,0,4161.39393898,0,4398.36363592,0,4294.81818139,0,4827.99999952,0,4559.09090864,0,42.0,42.0,?
2017-07-31 18:11:50.548794,4524.57575712,0,4202.09090867,0,3925.96969658,0,3940.90909052,0,4283.99999957,0,4419.99999956,0,4187.15151473,0,4338.09090866,0,4938.24242375,0,4150.06060565,0,4397.84848441,0,4296.87878745,0,4829.03030255,0,4558.57575712,0,42.0,42.0,?
2017-07-31 18:11:50.552367,4520.96969652,0,4205.18181776,0,3915.66666628,0,3923.90909052,0,4283.48484806,0,4425.15151471,0,4184.06060564,0,4344.78787835,0,4936.18181769,0,4145.93939352,0,4393.21212077,0,4298.42424199,0,4831.60606012,0,4558.0606056,0,42.0,42.0,?
2017-07-31 18:11:50.556717,4525.09090864,0,4197.96969655,0,3922.36363597,0,3935.75757536,0,4290.69696927,0,4429.78787834,0,4181.48484807,0,4349.42424199,0,4939.78787829,0,4155.2121208,0,4394.75757532,0,4295.84848442,0,4828.51515103,0,4560.12121167,0,42.0,42.0,?
2017-07-31 18:11:50.565992,4523.03030258,0,4204.15151473,0,3923.90909052,0,3943.99999961,0,4289.66666624,0,4425.15151471,0,4172.21212079,0,4333.96969654,0,4932.06060557,0,4145.93939352,0,4391.15151471,0,4297.90909048,0,4835.21212073,0,4557.03030257,0,42.0,42.0,?
2017-07-31 18:11:50.572411,4518.90909046,0,4200.54545413,0,3916.18181779,0,3934.21212082,0,4290.18181775,0,4424.63636319,0,4171.69696928,0,4327.27272684,0,4935.66666617,0,4138.2121208,0,4387.03030259,0,4298.93939351,0,4824.90909043,0,4553.93939348,0,42.0,42.0,?
2017-07-31 18:11:50.580376,4521.99999955,0,4201.06060564,0,3913.60606021,0,3928.54545415,0,4290.69696927,0,4427.72727228,0,4176.84848443,0,4332.42424199,0,4945.96969648,0,4144.90909049,0,4392.69696926,0,4301.51515109,0,4826.45454497,0,4559.09090864,0,42.0,42.0,?
2017-07-31 18:11:50.594560,4524.57575712,0,4205.18181776,0,3924.93939355,0,3939.87878748,0,4288.12121169,0,4424.63636319,0,4180.45454504,0,4334.48484805,0,4943.90909041,0,4148.5151511,0,4393.72727229,0,4295.84848442,0,4832.12121164,0,4565.27272682,0,42.0,42.0,?
2017-07-31 18:11:50.595882,4520.454545,0,4197.96969655,0,3929.06060567,0,3941.42424203,0,4290.69696927,0,4419.99999956,0,4183.54545413,0,4334.48484805,0,4944.42424193,0,4145.93939352,0,4389.09090865,0,4290.69696927,0,4821.30302982,0,4560.12121167,0,42.0,42.0,?
2017-07-31 18:11:50.603289,4513.24242379,0,4202.60606019,0,3914.63636324,0,3922.36363597,0,4290.18181775,0,4421.5454541,0,4182.5151511,0,4329.3333329,0,4944.93939344,0,4138.72727231,0,4384.96969653,0,4298.42424199,0,4821.81818134,0,4549.81818136,0,42.0,42.0,?
2017-07-31 18:11:50.616786,4514.27272682,0,4202.60606019,0,3909.99999961,0,3918.24242385,0,4287.60606018,0,4426.18181774,0,4182.5151511,0,4329.84848442,0,4940.81818132,0,4136.66666625,0,4383.9393935,0,4297.90909048,0,4819.24242376,0,4550.84848439,0,42.0,42.0,?
2017-07-31 18:11:50.627072,4517.87878743,3721.45454508,4201.06060564,0,3909.99999961,0,3929.57575718,0,4288.12121169,0,4425.66666622,0,4185.60606019,0,4334.48484805,0,4941.33333284,0,4143.36363595,0,4389.09090865,0,4294.30302987,0,4828.51515103,0,4552.39393894,0,42.0,42.0,?
2017-07-31 18:11:50.636092,4517.36363591,3721.45454508,4203.1212117,8.2424242416,3911.03030264,0,3936.27272688,0,4291.7272723,0,4423.09090865,0,4189.21212079,0,4338.60606017,0,4951.63636314,0,4158.8181814,0,4393.72727229,0,4297.90909048,0,4836.75757527,0,4552.90909045,0,42.0,42.0,?
2017-07-31 18:11:50.640774,4520.454545,3721.45454508,4198.48484806,8.2424242416,3917.72727234,0,3936.27272688,0,4292.75757533,0,4424.12121168,0,4189.21212079,0,4341.69696926,0,4958.33333284,0,4156.75757534,0,4394.2424238,0,4297.90909048,0,4829.03030255,0,4558.57575712,3428.84848451,42.0,42.0,?
2017-07-31 18:11:50.644031,4524.06060561,3721.45454508,4205.18181776,8.2424242416,3910.51515112,189.575757557,3927.51515112,0,4285.0303026,0,4425.15151471,0,4180.96969655,0,4336.54545411,0,4949.06060557,0,4134.09090868,0,4393.21212077,0,4298.42424199,0,4837.7878783,0,4556.51515106,3428.84848451,42.0,42.0,?
2017-07-31 18:11:50.650678,4526.63636318,3721.45454508,4202.60606019,8.2424242416,3911.54545415,189.575757557,3922.87878749,288.484848456,4286.06060563,0,4427.21212077,0,4182.5151511,0,4338.60606017,0,4958.84848435,0,4148.5151511,0,4397.84848441,0,4298.42424199,0,4835.21212073,0,4554.454545,3428.84848451,42.0,42.0,?
2017-07-31 18:11:50.658433,4528.18181773,3721.45454508,4199.5151511,8.2424242416,3922.36363597,189.575757557,3928.03030264,288.484848456,4297.39393896,111.272727262,4431.84848441,0,4193.33333291,0,4350.96969653,0,4978.42424193,0,4187.15151473,0,4408.66666623,0,4299.45454502,0,4836.75757527,0,4567.33333288,3428.84848451,42.0,42.0,?
2017-07-31 18:11:50.666814,4526.63636318,3721.45454508,4206.72727231,8.2424242416,3909.48484809,189.575757557,3932.15151476,288.484848456,4303.06060563,111.272727262,4435.45454501,2794.1818179,4194.36363594,0,4354.57575714,0,4976.87878738,0,4191.78787837,0,4411.75757532,0,4299.45454502,0,4847.57575709,0,4577.12121166,3428.84848451,42.0,42.0,?
2017-07-31 18:11:50.674230,4526.12121167,3721.45454508,4200.54545413,8.2424242416,3891.45454507,189.575757557,3935.75757536,288.484848456,4304.09090866,111.272727262,4434.9393935,2794.1818179,4194.36363594,3103.27272696,4358.18181775,0,4972.75757526,0,4183.54545413,0,4407.6363632,0,4295.3333329,0,4836.24242376,0,4572.48484803,3428.84848451,42.0,42.0,?
2017-07-31 18:11:50.681788,4525.60606015,3721.45454508,4203.1212117,8.2424242416,3888.87878749,189.575757557,3933.6969693,288.484848456,4300.99999957,111.272727262,4434.9393935,2794.1818179,4198.48484806,3103.27272696,4364.36363593,2625.21212095,4976.87878738,0,4181.99999958,0,4409.69696926,0,4298.93939351,0,4839.33333285,0,4569.39393894,3428.84848451,42.0,42.0,?
2017-07-31 18:11:50.689189,4521.48484803,3721.45454508,4203.1212117,8.2424242416,3884.24242385,189.575757557,3921.33333294,288.484848456,4305.12121169,111.272727262,4439.06060562,2794.1818179,4204.66666625,3103.27272696,4363.3333329,2625.21212095,4980.48484799,2954.90909061,4171.69696928,0,4406.09090865,0,4298.42424199,0,4837.27272679,0,4568.87878742,3428.84848451,42.0,42.0,?
2017-07-31 18:11:50.699811,4515.30302985,3721.45454508,4200.54545413,8.2424242416,3872.39393901,189.575757557,3919.7878784,288.484848456,4312.84848442,111.272727262,4438.5454541,2794.1818179,4202.09090867,3103.27272696,4358.69696926,2625.21212095,4976.36363587,2954.90909061,4154.18181777,0.0,4397.84848441,0,4295.84848442,0,4831.09090861,0,4565.78787833,3428.84848451,42.0,42.0,?
2017-07-31 18:11:50.704659,4512.21212076,3721.45454508,4206.72727231,8.2424242416,3871.87878749,189.575757557,3930.0909087,288.484848456,4307.18181775,111.272727262,4433.90909047,2794.1818179,4193.84848443,3103.27272696,4358.18181775,2625.21212095,4970.6969692,2954.90909061,4145.93939352,0.0,4398.87878744,3342.30302997,4297.39393896,0,4839.33333285,0,4563.21212076,3428.84848451,42.0,42.0,?
2017-07-31 18:11:50.712818,4516.33333288,3721.45454508,4198.99999958,8.2424242416,3881.15151476,189.575757557,3924.42424203,288.484848456,4296.87878745,111.272727262,4427.72727228,2794.1818179,4193.33333291,3103.27272696,4360.24242381,2625.21212095,4975.84848435,2954.90909061,4153.15151474,0.0,4401.45454501,3342.30302997,4295.3333329,391.515151476,4830.06060558,0,4561.1515147,3428.84848451,42.0,42.0,?
2017-07-31 18:11:50.722415,4516.33333288,3721.45454508,4202.60606019,8.2424242416,3874.96969658,189.575757557,3911.03030264,288.484848456,4290.18181775,111.272727262,4421.5454541,2794.1818179,4191.27272685,3103.27272696,4348.39393896,2625.21212095,4972.24242375,2954.90909061,4150.06060565,0.0,4399.90909047,3342.30302997,4299.45454502,391.515151476,4832.12121164,605.818181758,4560.12121167,3428.84848451,42.0,42.0,?
2017-07-31 18:11:50.733320,4515.81818137,3721.45454508,4207.24242382,8.2424242416,3873.42424204,189.575757557,3918.75757537,288.484848456,4293.27272684,111.272727262,4426.69696925,2794.1818179,4195.90909049,3103.27272696,4344.78787835,2625.21212095,4965.03030253,2954.90909061,4144.39393898,4.1212121208,4400.9393935,3342.30302997,4298.93939351,391.515151476,4833.66666618,605.818181758,4565.78787833,3428.84848451,42.0,42.0,?
2017-07-31 18:11:50.737965,4518.90909046,3721.45454508,4201.57575716,8.2424242416,3880.12121173,189.575757557,3925.45454506,288.484848456,4296.36363593,111.272727262,4433.90909047,2794.1818179,4205.18181776,3103.27272696,4354.06060563,2625.21212095,4968.12121162,2954.90909061,4147.48484807,4.1212121208,4402.99999956,3342.30302997,4293.27272684,391.515151476,4827.484848,605.818181758,4566.81818136,3428.84848451,42.0,42.0,?
2017-07-31 18:11:50.744720,4515.81818137,3721.45454508,4205.18181776,8.2424242416,3871.87878749,189.575757557,3916.18181779,288.484848456,4289.66666624,111.272727262,4430.81818138,2794.1818179,4198.48484806,3103.27272696,4348.90909047,2625.21212095,4963.9999995,2954.90909061,4143.36363595,4.1212121208,4394.2424238,3342.30302997,4297.39393896,383.272727234,4832.12121164,605.818181758,4558.0606056,3428.84848451,42.0,42.0,?
2017-07-31 18:11:50.752129,4512.72727228,3721.45454508,4201.57575716,8.2424242416,3867.24242386,189.575757557,3916.18181779,288.484848456,4293.27272684,111.272727262,4431.33333289,2794.1818179,4195.39393897,3103.27272696,4346.3333329,2625.21212095,4962.45454496,2954.90909061,4149.03030262,4.1212121208,4388.06060562,3342.30302997,4298.93939351,383.272727234,4823.36363588,605.818181758,4552.90909045,3428.84848451,42.0,42.0,?
2017-07-31 18:11:50.759658,4511.18181773,3721.45454508,4204.66666625,8.2424242416,3864.66666628,189.575757557,3919.7878784,288.484848456,4300.99999957,111.272727262,4436.48484804,2794.1818179,4205.18181776,3103.27272696,4354.57575714,2625.21212095,4967.09090859,2954.90909061,4159.84848443,4.1212121208,4391.66666623,3342.30302997,4298.93939351,383.272727234,4827.99999952,605.818181758,4550.33333288,3428.84848451,42.0,42.0,?
2017-07-31 18:11:50.767391,4507.06060561,3721.45454508,4204.66666625,8.2424242416,3860.03030264,189.575757557,3921.33333294,288.484848456,4305.12121169,111.272727262,4438.03030259,2794.1818179,4213.93939352,3103.27272696,4361.27272684,2625.21212095,4967.60606011,2954.90909061,4164.99999958,4.1212121208,4390.6363632,3342.30302997,4299.45454502,383.272727234,4833.15151467,605.818181758,4543.12121167,3428.84848451,42.0,42.0,?
2017-07-31 18:11:50.775154,4507.57575713,3721.45454508,4195.39393897,8.2424242416,3862.60606022,189.575757557,3918.24242385,288.484848456,4305.63636321,111.272727262,4436.48484804,2794.1818179,4210.33333291,3103.27272696,4358.69696926,2625.21212095,4965.54545405,2954.90909061,4172.72727231,4.1212121208,4391.15151471,3342.30302997,4296.36363593,383.272727234,4823.36363588,605.818181758,4541.57575712,3428.84848451,42.0,42.0,?
2017-07-31 18:11:50.783223,4507.06060561,3721.45454508,4204.15151473,8.2424242416,3862.0909087,189.575757557,3913.0909087,288.484848456,4294.81818139,111.272727262,4431.84848441,2794.1818179,4198.48484806,3103.27272696,4346.84848441,2625.21212095,4957.30302981,2954.90909061,4174.78787837,4.1212121208,4393.21212077,3342.30302997,4297.39393896,383.272727234,4829.03030255,605.818181758,4541.57575712,3428.84848451,42.0,42.0,?
2017-07-31 18:11:50.790622,4506.03030258,3721.45454508,4201.06060564,8.2424242416,3863.12121173,189.575757557,3928.54545415,288.484848456,4291.7272723,111.272727262,4430.30302986,2794.1818179,4198.99999958,3103.27272696,4346.3333329,2625.21212095,4956.78787829,2954.90909061,4174.78787837,4.1212121208,4389.60606017,3342.30302997,4297.39393896,383.272727234,4821.81818134,605.818181758,4534.36363591,3428.84848451,42.0,42.0,?
2017-07-31 18:11:50.799626,4504.99999955,3721.45454508,4197.45454503,8.2424242416,3864.66666628,189.575757557,3936.27272688,288.484848456,4298.42424199,111.272727262,4432.36363592,2794.1818179,4201.57575716,3103.27272696,4348.90909047,2625.21212095,4958.84848435,2954.90909061,4179.93939352,4.1212121208,4387.54545411,3342.30302997,4296.87878745,383.272727234,4819.24242376,605.818181758,4527.66666621,3428.84848451,42.0,42.0,?
2017-07-31 18:11:50.807477,4503.96969652,3721.45454508,4205.18181776,8.2424242416,3868.27272689,189.575757557,3924.42424203,288.484848456,4298.42424199,111.272727262,4431.84848441,2794.1818179,4195.90909049,3103.27272696,4346.84848441,2625.21212095,4953.6969692,2954.90909061,4187.15151473,4.1212121208,4389.60606017,3342.30302997,4297.90909048,383.272727234,4825.42424194,605.818181758,4528.69696924,3428.84848451,42.0,42.0,?
2017-07-31 18:11:50.814423,4503.96969652,3721.45454508,4200.03030261,8.2424242416,3875.4848481,189.575757557,3931.12121173,288.484848456,4293.27272684,111.272727262,4428.2424238,2794.1818179,4190.75757534,3103.27272696,4347.87878744,2625.21212095,4952.15151466,2954.90909061,4192.30302988,4.1212121208,4391.15151471,3342.30302997,4295.84848442,383.272727234,4814.09090861,605.818181758,4528.18181773,3428.84848451,42.0,42.0,?
2017-07-31 18:11:50.823592,4496.75757531,3721.45454508,4201.57575716,8.2424242416,3867.75757537,189.575757557,3929.06060567,288.484848456,4289.66666624,111.272727262,4425.66666622,2794.1818179,4184.57575716,3103.27272696,4340.15151472,2625.21212095,4949.57575708,2954.90909061,4188.69696928,4.1212121208,4389.09090865,3342.30302997,4297.39393896,383.272727234,4817.69696922,605.818181758,4520.96969652,3428.84848451,42.0,42.0,?
2017-07-31 18:11:50.830714,4493.1515147,3721.45454508,4201.06060564,8.2424242416,3869.30302992,189.575757557,3901.24242385,288.484848456,4293.27272684,111.272727262,4426.18181774,2794.1818179,4189.21212079,3103.27272696,4340.15151472,2625.21212095,4954.21212072,2954.90909061,4186.1212117,4.1212121208,4388.06060562,3342.30302997,4295.3333329,383.272727234,4815.63636315,605.818181758,4518.90909046,3428.84848451,42.0,42.0,?
2017-07-31 18:11:50.839468,4496.75757531,3721.45454508,4202.60606019,8.2424242416,3881.66666628,189.575757557,3900.72727234,288.484848456,4292.75757533,111.272727262,4429.27272683,2794.1818179,4201.06060564,3103.27272696,4353.03030259,2625.21212095,4957.81818132,2954.90909061,4188.69696928,4.1212121208,4393.72727229,3342.30302997,4296.36363593,383.272727234,4814.09090861,605.818181758,4523.54545409,3428.84848451,42.0,42.0,?
2017-07-31 18:11:50.845692,4500.87878743,3721.45454508,4205.69696928,8.2424242416,3879.0909087,189.575757557,3934.72727233,288.484848456,4286.57575715,111.272727262,4433.39393895,2794.1818179,4202.60606019,3103.27272696,4356.12121169,2625.21212095,4952.66666617,2954.90909061,4191.78787837,4.1212121208,4400.9393935,3342.30302997,4299.96969654,383.272727234,4825.93939346,605.818181758,4527.66666621,3428.84848451,42.0,42.0,?
2017-07-31 18:11:50.854460,4508.09090864,3721.45454508,4197.96969655,8.2424242416,3878.06060567,189.575757557,3952.24242385,288.484848456,4290.69696927,111.272727262,4434.9393935,2794.1818179,4201.57575716,3103.27272696,4352.51515108,2625.21212095,4956.27272678,2954.90909061,4195.39393897,4.1212121208,4407.6363632,3342.30302997,4294.81818139,383.272727234,4818.21212073,605.818181758,4530.7575753,3428.84848451,42.0,42.0,?
2017-07-31 18:11:50.862512,4511.18181773,3721.45454508,4206.21212079,8.2424242416,3884.24242385,189.575757557,3937.30302991,288.484848456,4293.27272684,111.272727262,4433.39393895,2794.1818179,4203.63636322,3103.27272696,4351.48484805,2625.21212095,4960.90909041,2954.90909061,4193.84848443,4.1212121208,4412.27272683,3342.30302997,4297.39393896,383.272727234,4823.8787874,605.818181758,4530.7575753,3428.84848451,42.0,42.0,?
2017-07-31 18:11:50.868682,4511.18181773,3721.45454508,4204.15151473,8.2424242416,3892.4848481,189.575757557,3931.12121173,288.484848456,4298.42424199,111.272727262,4435.45454501,2794.1818179,4205.18181776,3103.27272696,4354.57575714,2625.21212095,4963.9999995,2954.90909061,4197.96969655,4.1212121208,4411.75757532,3342.30302997,4300.99999957,383.272727234,4830.57575709,605.818181758,4531.27272682,3428.84848451,42.0,42.0,?
2017-07-31 18:11:50.878652,4512.72727228,3721.45454508,4195.90909049,8.2424242416,3893.51515113,189.575757557,3932.66666627,288.484848456,4304.09090866,111.272727262,4436.48484804,2794.1818179,4200.54545413,3103.27272696,4354.06060563,2625.21212095,4966.57575708,2954.90909061,4202.60606019,4.1212121208,4409.69696926,3342.30302997,4299.45454502,383.272727234,4826.45454497,605.818181758,4533.33333288,3428.84848451,42.0,42.0,?
2017-07-31 18:11:50.885758,4511.18181773,3721.45454508,4205.18181776,8.2424242416,3880.12121173,189.575757557,3928.54545415,288.484848456,4294.81818139,111.272727262,4432.87878744,2794.1818179,4191.27272685,3103.27272696,4345.30302987,2625.21212095,4961.42424193,2954.90909061,4189.72727231,4.1212121208,4409.18181774,3342.30302997,4297.90909048,383.272727234,4830.57575709,605.818181758,4530.24242379,3428.84848451,42.0,42.0,?
2017-07-31 18:11:50.893263,4510.66666622,3721.45454508,4200.03030261,8.2424242416,3883.21212082,189.575757557,3933.6969693,288.484848456,4291.7272723,111.272727262,4428.75757531,2794.1818179,4190.75757534,3103.27272696,4344.78787835,2625.21212095,4957.30302981,2954.90909061,4186.63636322,4.1212121208,4406.09090865,3342.30302997,4295.84848442,383.272727234,4820.78787831,605.818181758,4528.69696924,3428.84848451,42.0,42.0,?
2017-07-31 18:11:50.900965,4512.21212076,3721.45454508,4201.57575716,8.2424242416,3897.63636325,189.575757557,3922.87878749,288.484848456,4294.30302987,111.272727262,4427.72727228,2794.1818179,4191.27272685,3103.27272696,4345.81818138,2625.21212095,4955.75757526,2954.90909061,4192.30302988,4.1212121208,4404.03030259,3342.30302997,4298.42424199,383.272727234,4829.03030255,605.818181758,4534.36363591,3428.84848451,42.0,42.0,?
2017-07-31 18:11:50.909369,4514.78787834,3721.45454508,4205.18181776,8.2424242416,3898.15151476,189.575757557,3915.66666628,288.484848456,4291.7272723,111.272727262,4428.75757531,2794.1818179,4189.72727231,3103.27272696,4346.3333329,2625.21212095,4955.75757526,2954.90909061,4194.36363594,4.1212121208,4406.60606017,3342.30302997,4296.87878745,383.272727234,4834.69696921,605.818181758,4538.99999955,3428.84848451,42.0,42.0,?
2017-07-31 18:11:50.916083,4516.8484844,3721.45454508,4198.48484806,8.2424242416,3888.87878749,189.575757557,3931.63636324,288.484848456,4289.15151472,111.272727262,4430.81818138,2794.1818179,4192.8181814,3103.27272696,4351.99999956,2625.21212095,4961.93939344,2954.90909061,4197.96969655,4.1212121208,4412.27272683,3342.30302997,4294.81818139,383.272727234,4827.99999952,605.818181758,4537.96969652,3428.84848451,42.0,42.0,?
2017-07-31 18:11:50.923671,4518.39393894,3721.45454508,4204.15151473,8.2424242416,3888.36363597,189.575757557,3935.75757536,288.484848456,4288.63636321,111.272727262,4430.30302986,2794.1818179,4196.93939352,3103.27272696,4353.54545411,2625.21212095,4966.06060556,2954.90909061,4198.99999958,4.1212121208,4418.96969653,3342.30302997,4301.51515109,383.272727234,4842.42424194,605.818181758,4541.06060561,3428.84848451,42.0,42.0,?
2017-07-31 18:11:50.933877,4526.12121167,3721.45454508,4201.06060564,8.2424242416,3902.27272688,189.575757557,3935.75757536,288.484848456,4293.78787836,111.272727262,4428.2424238,2794.1818179,4206.21212079,3103.27272696,4360.24242381,2625.21212095,4971.72727223,2954.90909061,4205.69696928,4.1212121208,4423.09090865,3342.30302997,4299.45454502,383.272727234,4839.84848436,605.818181758,4550.84848439,3428.84848451,42.0,42.0,?
2017-07-31 18:11:50.939484,4531.78787833,3721.45454508,4202.09090867,8.2424242416,3904.84848446,189.575757557,3935.75757536,288.484848456,4292.75757533,111.272727262,4427.21212077,2794.1818179,4204.15151473,3103.27272696,4362.81818138,2625.21212095,4974.30302981,2954.90909061,4209.8181814,4.1212121208,4426.69696925,3342.30302997,4298.93939351,383.272727234,4839.33333285,605.818181758,4556.51515106,3428.84848451,42.0,42.0,?
2017-07-31 18:11:50.948547,4530.24242379,3721.45454508,4205.69696928,8.2424242416,3903.30302991,189.575757557,3928.54545415,288.484848456,4293.27272684,111.272727262,4426.69696925,2794.1818179,4189.72727231,3103.27272696,4355.60606017,2625.21212095,4971.72727223,2954.90909061,4208.27272685,4.1212121208,4427.72727228,3342.30302997,4302.54545412,383.272727234,4845.51515103,605.818181758,4559.09090864,3428.84848451,42.0,42.0,?
2017-07-31 18:11:50.956566,4531.78787833,3721.45454508,4197.96969655,8.2424242416,3914.63636324,189.575757557,3929.57575718,288.484848456,4296.87878745,111.272727262,4426.69696925,2794.1818179,4190.24242382,3103.27272696,4354.06060563,2625.21212095,4972.24242375,2954.90909061,4211.36363594,4.1212121208,4429.27272683,3342.30302997,4297.90909048,383.272727234,4836.75757527,605.818181758,4562.69696924,3428.84848451,42.0,42.0,?
2017-07-31 18:11:50.963577,4535.39393894,3721.45454508,4203.63636322,8.2424242416,3919.27272688,189.575757557,3936.27272688,288.484848456,4290.18181775,111.272727262,4425.15151471,2794.1818179,4193.33333291,3103.27272696,4353.54545411,2625.21212095,4965.54545405,2954.90909061,4208.27272685,4.1212121208,4429.27272683,3342.30302997,4297.39393896,383.272727234,4838.81818133,605.818181758,4562.69696924,3428.84848451,42.0,42.0,?
2017-07-31 18:11:50.971069,4529.72727227,3721.45454508,4216.51515109,8.2424242416,3905.87878749,189.575757557,3936.27272688,288.484848456,4286.06060563,111.272727262,4424.12121168,2794.1818179,4184.06060564,3103.27272696,4346.3333329,2625.21212095,4953.6969692,2954.90909061,4195.39393897,4.1212121208,4421.03030259,3342.30302997,4303.06060563,383.272727234,4841.39393891,605.818181758,4554.96969651,3428.84848451,42.0,42.0,?
2017-07-31 18:11:50.981048,4524.06060561,3721.45454508,4200.03030261,8.2424242416,3900.72727234,189.575757557,3932.15151476,288.484848456,4292.75757533,111.272727262,4426.69696925,2794.1818179,4180.45454504,3103.27272696,4341.69696926,2625.21212095,4954.72727223,2954.90909061,4190.24242382,4.1212121208,4416.90909047,3342.30302997,4299.96969654,383.272727234,4829.54545406,605.818181758,4550.84848439,3428.84848451,42.0,42.0,?
2017-07-31 18:11:50.986614,4532.30302985,3721.45454508,4177.87878746,8.2424242416,3911.54545415,189.575757557,3929.06060567,288.484848456,4295.3333329,111.272727262,4428.2424238,2794.1818179,4190.75757534,3103.27272696,4349.9393935,2625.21212095,4963.48484799,2954.90909061,4201.06060564,4.1212121208,4425.66666622,3342.30302997,4291.21212078,383.272727234,4817.69696922,605.818181758,4557.54545409,3428.84848451,42.0,42.0,?
2017-07-31 18:11:50.993696,4518.39393894,3721.45454508,4264.424242,8.2424242416,3880.12121173,189.575757557,3901.75757537,288.484848456,4265.45454503,111.272727262,4419.99999956,2794.1818179,4173.24242383,3103.27272696,4331.39393896,2625.21212095,4931.03030254,2954.90909061,4174.27272686,4.1212121208,4415.36363592,3342.30302997,4311.30302987,383.272727234,4876.42424194,605.818181758,4540.03030258,3428.84848451,42.0,42.0,?
2017-07-31 18:11:51.003015,4517.36363591,3721.45454508,4249.48484806,8.2424242416,3879.0909087,189.575757557,3917.72727234,288.484848456,4272.66666624,111.272727262,4421.5454541,2794.1818179,4174.78787837,3103.27272696,4334.99999957,2625.21212095,4934.63636314,2954.90909061,4173.75757534,4.1212121208,4411.2424238,3342.30302997,4309.75757533,383.272727234,4866.12121163,605.818181758,4542.09090864,3428.84848451,42.0,42.0,?
2017-07-31 18:11:51.011883,4549.30302985,3721.45454508,4120.69696928,8.2424242416,3933.6969693,189.575757557,3969.24242385,288.484848456,4318.51515108,111.272727262,4427.72727228,2794.1818179,4220.63636321,3103.27272696,4383.42424199,2625.21212095,5000.06060556,2954.90909061,4226.8181814,4.1212121208,4434.42424198,3342.30302997,4276.78787836,383.272727234,4778.03030255,605.818181758,4570.93939348,3428.84848451,42.0,42.0,?
2017-07-31 18:11:51.018097,4539.51515106,3721.45454508,4185.60606019,8.2424242416,3913.60606021,189.575757557,3944.51515112,288.484848456,4296.87878745,111.272727262,4420.51515107,2794.1818179,4212.90909049,3103.27272696,4369.51515108,2625.21212095,4985.12121162,2954.90909061,4208.78787837,4.1212121208,4431.33333289,3342.30302997,4294.81818139,383.272727234,4832.12121164,605.818181758,4560.12121167,3428.84848451,42.0,42.0,?
2017-07-31 18:11:51.024643,4531.27272682,3721.45454508,4224.75757534,8.2424242416,3895.06060567,189.575757557,3931.12121173,288.484848456,4287.60606018,111.272727262,4424.12121168,2794.1818179,4198.48484806,3103.27272696,4353.54545411,2625.21212095,4957.81818132,2954.90909061,4189.21212079,4.1212121208,4422.57575713,3342.30302997,4305.63636321,383.272727234,4861.99999951,605.818181758,4557.54545409,3428.84848451,42.0,42.0,?
2017-07-31 18:11:51.033750,4543.12121167,3721.45454508,4173.24242383,8.2424242416,3914.12121173,189.575757557,3947.0909087,288.484848456,4309.75757533,111.272727262,4431.84848441,2794.1818179,4211.36363594,3103.27272696,4372.09090865,2625.21212095,4976.87878738,2954.90909061,4206.21212079,4.1212121208,4428.75757531,3342.30302997,4291.21212078,383.272727234,4818.21212073,605.818181758,4566.30302985,3428.84848451,42.0,42.0,?
2017-07-31 18:11:51.041383,4530.7575753,3721.45454508,4199.5151511,8.2424242416,3897.63636325,189.575757557,3937.30302991,288.484848456,4298.93939351,111.272727262,4426.18181774,2794.1818179,4200.54545413,3103.27272696,4360.24242381,2625.21212095,4964.51515102,2954.90909061,4190.24242382,4.1212121208,4419.99999956,3342.30302997,4298.42424199,383.272727234,4838.30302982,605.818181758,4551.36363591,3428.84848451,42.0,42.0,?
2017-07-31 18:11:51.049243,4524.57575712,3721.45454508,4202.60606019,8.2424242416,3892.4848481,189.575757557,3935.75757536,288.484848456,4296.87878745,111.272727262,4423.09090865,2794.1818179,4200.03030261,3103.27272696,4357.66666623,2625.21212095,4960.90909041,2954.90909061,4182.5151511,4.1212121208,4410.72727229,3342.30302997,4297.39393896,383.272727234,4836.24242376,605.818181758,4545.18181773,3428.84848451,42.0,42.0,?
2017-07-31 18:11:51.056617,4522.51515106,3721.45454508,4196.424242,8.2424242416,3897.63636325,189.575757557,3917.72727234,288.484848456,4293.78787836,111.272727262,4425.66666622,2794.1818179,4206.72727231,3103.27272696,4361.78787835,2625.21212095,4967.60606011,2954.90909061,4186.63636322,4.1212121208,4409.69696926,3342.30302997,4295.84848442,383.272727234,4829.54545406,605.818181758,4543.12121167,3428.84848451,42.0,42.0,?
2017-07-31 18:11:51.066778,4519.93939349,3721.45454508,4194.36363594,8.2424242416,3898.66666628,189.575757557,3914.12121173,288.484848456,4290.18181775,111.272727262,4424.12121168,2794.1818179,4201.57575716,3103.27272696,4359.21212078,2625.21212095,4964.51515102,2954.90909061,4187.66666625,4.1212121208,4409.18181774,3342.30302997,4295.84848442,383.272727234,4831.60606012,605.818181758,4538.99999955,3428.84848451,42.0,42.0,?
2017-07-31 18:11:51.072492,4519.42424197,3721.45454508,4192.8181814,8.2424242416,3897.12121173,189.575757557,3942.45454506,288.484848456,4296.36363593,111.272727262,4420.51515107,2794.1818179,4195.39393897,3103.27272696,4357.66666623,2625.21212095,4961.42424193,2954.90909061,4186.1212117,4.1212121208,4406.60606017,3342.30302997,4293.27272684,383.272727234,4823.36363588,605.818181758,4537.454545,3428.84848451,42.0,42.0,?
2017-07-31 18:11:51.081298,4521.99999955,3721.45454508,4202.60606019,8.2424242416,3891.96969658,189.575757557,3940.90909052,288.484848456,4291.7272723,111.272727262,4420.51515107,2794.1818179,4191.78787837,3103.27272696,4352.51515108,2625.21212095,4960.3939389,2954.90909061,4185.09090867,4.1212121208,4412.27272683,3342.30302997,4297.39393896,383.272727234,4831.09090861,605.818181758,4541.06060561,3428.84848451,42.0,42.0,?
2017-07-31 18:11:51.088731,4524.57575712,3721.45454508,4194.87878746,8.2424242416,3892.4848481,189.575757557,3921.33333294,288.484848456,4290.18181775,111.272727262,4422.57575713,2794.1818179,4194.36363594,3103.27272696,4349.42424199,2625.21212095,4965.54545405,2954.90909061,4189.72727231,4.1212121208,4415.87878744,3342.30302997,4295.84848442,383.272727234,4826.45454497,605.818181758,4543.12121167,3428.84848451,42.0,42.0,?
2017-07-31 18:11:51.096503,4515.81818137,3721.45454508,4198.99999958,8.2424242416,3887.84848446,189.575757557,3923.393939,288.484848456,4291.7272723,111.272727262,4422.06060562,2794.1818179,4196.93939352,3103.27272696,4347.87878744,2625.21212095,4963.9999995,2954.90909061,4181.99999958,4.1212121208,4409.69696926,3342.30302997,4294.81818139,383.272727234,4827.484848,605.818181758,4540.54545409,3428.84848451,42.0,42.0,?
2017-07-31 18:11:51.103635,4520.454545,3721.45454508,4198.99999958,8.2424242416,3890.93939355,189.575757557,3935.75757536,288.484848456,4291.21212078,111.272727262,4423.09090865,2794.1818179,4205.18181776,3103.27272696,4354.06060563,2625.21212095,4962.45454496,2954.90909061,4178.39393898,4.1212121208,4416.39393895,3342.30302997,4295.84848442,383.272727234,4838.81818133,605.818181758,4547.24242379,3428.84848451,42.0,42.0,?
2017-07-31 18:11:51.113658,4535.90909046,3721.45454508,4190.24242382,8.2424242416,3901.24242385,189.575757557,3932.15151476,288.484848456,4293.78787836,111.272727262,4427.21212077,2794.1818179,4213.93939352,3103.27272696,4362.81818138,2625.21212095,4965.03030253,2954.90909061,4187.66666625,4.1212121208,4431.84848441,3342.30302997,4294.30302987,383.272727234,4835.21212073,605.818181758,4559.60606015,3428.84848451,42.0,42.0,?
2017-07-31 18:11:51.120301,4532.30302985,3721.45454508,4201.57575716,8.2424242416,3891.96969658,189.575757557,3922.87878749,288.484848456,4295.3333329,111.272727262,4428.2424238,2794.1818179,4211.36363594,3103.27272696,4361.27272684,2625.21212095,4963.48484799,2954.90909061,4184.06060564,4.1212121208,4433.90909047,3342.30302997,4297.90909048,383.272727234,4845.51515103,605.818181758,4558.57575712,3428.84848451,42.0,42.0,?
2017-07-31 18:11:51.126621,4525.09090864,3709.09090872,4195.90909049,8.2424242416,3881.15151476,189.575757557,3923.90909052,288.484848456,4297.90909048,111.272727262,4428.2424238,2794.1818179,4209.30302988,3103.27272696,4361.78787835,2625.21212095,4970.18181768,2954.90909061,4181.99999958,4.1212121208,4427.21212077,3342.30302997,4294.30302987,383.272727234,4842.42424194,605.818181758,4550.84848439,3428.84848451,42.0,42.0,?
2017-07-31 18:11:51.143132,4523.03030258,3709.09090872,4200.54545413,12.3636363624,3878.06060567,189.575757557,3917.21212082,288.484848456,4302.0303026,111.272727262,4429.78787834,2794.1818179,4204.66666625,3103.27272696,4354.57575714,2625.21212095,4957.30302981,2954.90909061,4174.27272686,4.1212121208,4418.45454501,3342.30302997,4297.39393896,383.272727234,4840.36363588,605.818181758,4548.78787833,3428.84848451,42.0,42.0,?
2017-07-31 18:11:51.145116,4523.03030258,3709.09090872,4200.54545413,12.3636363624,3878.06060567,189.575757557,3917.21212082,288.484848456,4302.0303026,111.272727262,4430.30302986,2794.1818179,4197.96969655,3103.27272696,4354.57575714,2625.21212095,4957.30302981,2954.90909061,4174.27272686,4.1212121208,4418.45454501,3342.30302997,4297.39393896,383.272727234,4840.36363588,605.818181758,4550.33333288,3428.84848451,42.0,42.0,?
2017-07-31 18:11:51.153346,4523.54545409,3709.09090872,4191.27272685,12.3636363624,3885.7878784,197.818181798,3936.78787839,288.484848456,4305.63636321,111.272727262,4428.2424238,2794.1818179,4200.03030261,3103.27272696,4354.06060563,2625.21212095,4963.9999995,2954.90909061,4177.87878746,4.1212121208,4416.39393895,3342.30302997,4295.84848442,383.272727234,4832.12121164,605.818181758,4550.33333288,3428.84848451,42.0,42.0,?
2017-07-31 18:11:51.158651,4525.60606015,3709.09090872,4196.424242,12.3636363624,3888.87878749,197.818181798,3936.27272688,313.212121181,4296.36363593,111.272727262,4426.18181774,2794.1818179,4196.93939352,3103.27272696,4351.99999956,2625.21212095,4969.66666617,2954.90909061,4179.42424201,4.1212121208,4422.06060562,3342.30302997,4296.36363593,383.272727234,4836.75757527,605.818181758,4550.33333288,3428.84848451,42.0,42.0,?
2017-07-31 18:11:51.169276,4529.21212076,3709.09090872,4203.1212117,12.3636363624,3891.96969658,197.818181798,3927.51515112,313.212121181,4293.27272684,123.636363624,4427.21212077,2794.1818179,4189.72727231,3103.27272696,4347.87878744,2625.21212095,4963.48484799,2954.90909061,4176.84848443,4.1212121208,4426.18181774,3342.30302997,4298.42424199,383.272727234,4845.51515103,605.818181758,4553.93939348,3428.84848451,42.0,42.0,?
2017-07-31 18:11:51.176176,4527.66666621,3709.09090872,4191.78787837,12.3636363624,3895.57575719,197.818181798,3933.6969693,313.212121181,4299.45454502,123.636363624,4426.18181774,2785.93939366,4191.27272685,3103.27272696,4349.42424199,2625.21212095,4965.03030253,2954.90909061,4175.8181814,4.1212121208,4419.99999956,3342.30302997,4293.78787836,383.272727234,4829.03030255,605.818181758,4551.36363591,3428.84848451,42.0,42.0,?
2017-07-31 18:11:51.185882,4515.30302985,3709.09090872,4195.90909049,12.3636363624,3884.24242385,197.818181798,3928.54545415,313.212121181,4296.36363593,123.636363624,4425.66666622,2785.93939366,4193.33333291,3111.5151512,4349.9393935,2625.21212095,4966.57575708,2954.90909061,4166.03030261,4.1212121208,4408.66666623,3342.30302997,4295.3333329,383.272727234,4824.90909043,605.818181758,4544.1515147,3428.84848451,42.0,42.0,?
2017-07-31 18:11:51.190060,4509.63636319,3709.09090872,4197.96969655,12.3636363624,3879.0909087,197.818181798,3920.81818143,313.212121181,4295.84848442,123.636363624,4428.75757531,2785.93939366,4195.39393897,3111.5151512,4354.57575714,2641.69696943,4970.18181768,2954.90909061,4162.42424201,4.1212121208,4404.03030259,3342.30302997,4297.39393896,383.272727234,4822.84848437,605.818181758,4543.12121167,3428.84848451,42.0,42.0,?
2017-07-31 18:11:51.198084,4516.33333288,3709.09090872,4194.36363594,12.3636363624,3884.24242385,197.818181798,3924.42424203,313.212121181,4295.3333329,123.636363624,4426.69696925,2785.93939366,4197.96969655,3111.5151512,4358.18181775,2641.69696943,4973.78787829,2987.87878758,4167.57575716,4.1212121208,4410.72727229,3342.30302997,4296.36363593,383.272727234,4825.93939346,605.818181758,4545.69696924,3428.84848451,42.0,42.0,?
2017-07-31 18:11:51.205423,4520.454545,3709.09090872,4195.39393897,12.3636363624,3884.75757537,197.818181798,3927.51515112,313.212121181,4285.0303026,123.636363624,4417.9393935,2785.93939366,4195.90909049,3111.5151512,4355.09090866,2641.69696943,4971.21212072,2987.87878758,4168.60606019,16.4848484832,4416.90909047,3342.30302997,4295.84848442,383.272727234,4833.15151467,605.818181758,4549.81818136,3428.84848451,42.0,42.0,?
2017-07-31 18:11:51.215228,4516.8484844,3709.09090872,4194.36363594,12.3636363624,3880.12121173,197.818181798,3917.72727234,313.212121181,4281.93939351,123.636363624,4415.87878744,2785.93939366,4191.27272685,3111.5151512,4350.45454502,2641.69696943,4963.9999995,2987.87878758,4163.45454504,16.4848484832,4411.75757532,3313.45454512,4295.3333329,383.272727234,4823.36363588,605.818181758,4546.72727227,3428.84848451,42.0,42.0,?
2017-07-31 18:11:51.221433,4513.24242379,3709.09090872,4195.39393897,12.3636363624,3880.63636325,197.818181798,3903.30302991,313.212121181,4289.15151472,123.636363624,4416.39393895,2785.93939366,4185.09090867,3111.5151512,4344.78787835,2641.69696943,4955.24242375,2987.87878758,4156.75757534,16.4848484832,4411.2424238,3313.45454512,4298.42424199,366.787878751,4822.33333285,605.818181758,4543.63636318,3428.84848451,42.0,42.0,?
2017-07-31 18:11:51.229451,4515.81818137,3709.09090872,4193.33333291,12.3636363624,3886.30302991,197.818181798,3913.60606021,313.212121181,4293.78787836,123.636363624,4416.90909047,2785.93939366,4185.09090867,3111.5151512,4344.78787835,2641.69696943,4959.87878738,2987.87878758,4160.87878746,16.4848484832,4417.9393935,3313.45454512,4296.87878745,366.787878751,4822.33333285,651.151515086,4547.24242379,3428.84848451,42.0,42.0,?
2017-07-31 18:11:51.237740,4513.75757531,3709.09090872,4200.03030261,12.3636363624,3883.72727234,197.818181798,3932.15151476,313.212121181,4288.63636321,123.636363624,4422.06060562,2785.93939366,4187.66666625,3111.5151512,4344.78787835,2641.69696943,4962.96969647,2987.87878758,4164.48484807,16.4848484832,4418.45454501,3313.45454512,4296.87878745,366.787878751,4827.484848,651.151515086,4546.21212076,3428.84848451,42.0,42.0,?
2017-07-31 18:11:51.244498,4514.27272682,3709.09090872,4193.33333291,12.3636363624,3885.7878784,197.818181798,3927.51515112,313.212121181,4288.12121169,123.636363624,4424.12121168,2785.93939366,4186.63636322,3111.5151512,4345.30302987,2641.69696943,4958.84848435,2987.87878758,4162.93939352,16.4848484832,4415.87878744,3313.45454512,4297.39393896,366.787878751,4826.96969649,651.151515086,4546.72727227,3428.84848451,42.0,42.0,?
2017-07-31 18:11:51.253307,4522.51515106,3709.09090872,4185.09090867,12.3636363624,3891.96969658,197.818181798,3918.24242385,313.212121181,4293.27272684,123.636363624,4421.5454541,2785.93939366,4183.54545413,3111.5151512,4347.87878744,2641.69696943,4960.3939389,2987.87878758,4164.48484807,16.4848484832,4421.5454541,3313.45454512,4294.30302987,366.787878751,4823.36363588,651.151515086,4548.78787833,3428.84848451,42.0,42.0,?
2017-07-31 18:11:51.260890,4520.454545,3709.09090872,4200.03030261,12.3636363624,3881.15151476,197.818181798,3924.93939355,313.212121181,4292.75757533,123.636363624,4422.57575713,2785.93939366,4176.33333292,3111.5151512,4343.24242381,2641.69696943,4961.42424193,2987.87878758,4163.45454504,16.4848484832,4425.15151471,3313.45454512,4297.90909048,366.787878751,4839.33333285,651.151515086,4544.66666621,3428.84848451,42.0,42.0,?
2017-07-31 18:11:51.269907,4511.69696925,3709.09090872,4193.33333291,12.3636363624,3876.51515113,197.818181798,3931.12121173,313.212121181,4302.0303026,123.636363624,4425.66666622,2785.93939366,4179.93939352,3111.5151512,4344.78787835,2641.69696943,4965.54545405,2987.87878758,4163.45454504,16.4848484832,4419.48484804,3313.45454512,4296.87878745,366.787878751,4826.45454497,651.151515086,4540.03030258,3428.84848451,42.0,42.0,?
2017-07-31 18:11:51.275646,4510.66666622,3709.09090872,4189.72727231,12.3636363624,3880.63636325,197.818181798,3914.12121173,313.212121181,4300.99999957,123.636363624,4421.5454541,2785.93939366,4187.15151473,3111.5151512,4352.51515108,2641.69696943,4971.21212072,2987.87878758,4162.93939352,16.4848484832,4417.42424198,3313.45454512,4298.93939351,366.787878751,4819.75757528,651.151515086,4541.57575712,3428.84848451,42.0,42.0,?
2017-07-31 18:11:51.283952,4519.42424197,3709.09090872,4196.93939352,12.3636363624,3884.24242385,197.818181798,3913.60606021,313.212121181,4287.09090866,123.636363624,4418.96969653,2785.93939366,4190.75757534,3111.5151512,4360.24242381,2641.69696943,4981.51515102,2987.87878758,4169.1212117,16.4848484832,4429.78787834,3313.45454512,4303.06060563,366.787878751,4842.42424194,651.151515086,4552.39393894,3428.84848451,42.0,42.0,?
2017-07-31 18:11:51.292466,4528.18181773,3709.09090872,4189.72727231,12.3636363624,3890.93939355,197.818181798,3922.87878749,313.212121181,4285.54545412,123.636363624,4417.9393935,2785.93939366,4194.87878746,3111.5151512,4366.42424199,2641.69696943,4991.81818132,2987.87878758,4182.5151511,16.4848484832,4438.5454541,3313.45454512,4295.3333329,366.787878751,4835.72727224,651.151515086,4562.69696924,3428.84848451,42.0,42.0,?
2017-07-31 18:11:51.298678,4527.66666621,3709.09090872,4197.96969655,12.3636363624,3886.30302991,197.818181798,3901.75757537,313.212121181,4282.45454503,123.636363624,4412.27272683,2785.93939366,4190.24242382,3111.5151512,4359.21212078,2641.69696943,4986.15151465,2987.87878758,4177.36363595,16.4848484832,4435.96969653,3313.45454512,4293.27272684,366.787878751,4837.7878783,651.151515086,4560.12121167,3428.84848451,42.0,42.0,?
2017-07-31 18:11:51.306637,4528.69696924,3709.09090872,4199.5151511,12.3636363624,3881.15151476,197.818181798,3899.18181779,313.212121181,4284.51515109,123.636363624,4415.87878744,2785.93939366,4186.1212117,3111.5151512,4354.06060563,2641.69696943,4980.48484799,2987.87878758,4167.57575716,16.4848484832,4433.39393895,3313.45454512,4295.3333329,366.787878751,4842.42424194,651.151515086,4556.51515106,3428.84848451,42.0,42.0,?
2017-07-31 18:11:51.315081,4528.18181773,3709.09090872,4190.75757534,12.3636363624,3884.24242385,197.818181798,3924.93939355,313.212121181,4292.24242381,123.636363624,4423.60606016,2785.93939366,4186.63636322,3111.5151512,4351.99999956,2641.69696943,4976.87878738,2987.87878758,4161.90909049,16.4848484832,4429.78787834,3313.45454512,4294.81818139,366.787878751,4832.12121164,651.151515086,4555.48484803,3428.84848451,42.0,42.0,?
2017-07-31 18:11:51.324634,4524.57575712,3709.09090872,4194.87878746,12.3636363624,3882.18181779,197.818181798,3921.33333294,313.212121181,4290.69696927,123.636363624,4421.5454541,2785.93939366,4184.57575716,3111.5151512,4345.30302987,2641.69696943,4967.09090859,2987.87878758,4154.18181777,16.4848484832,4424.12121168,3313.45454512,4297.39393896,366.787878751,4836.24242376,651.151515086,4553.42424197,3428.84848451,42.0,42.0,?
2017-07-31 18:11:51.335748,4529.72727227,3709.09090872,4195.39393897,12.3636363624,3880.63636325,197.818181798,3904.33333294,313.212121181,4290.18181775,123.636363624,4418.45454501,2785.93939366,4184.06060564,3111.5151512,4347.87878744,2641.69696943,4967.09090859,2987.87878758,4151.60606019,16.4848484832,4423.60606016,3313.45454512,4294.30302987,366.787878751,4837.27272679,651.151515086,4553.42424197,3428.84848451,42.0,42.0,?
2017-07-31 18:11:51.340639,4538.99999955,3709.09090872,4195.90909049,12.3636363624,3881.66666628,197.818181798,3914.63636324,313.212121181,4292.24242381,123.636363624,4423.60606016,2785.93939366,4185.60606019,3111.5151512,4350.96969653,2641.69696943,4968.12121162,2987.87878758,4150.57575716,16.4848484832,4430.30302986,3313.45454512,4294.81818139,366.787878751,4841.90909042,651.151515086,4559.60606015,3428.84848451,42.0,42.0,?
2017-07-31 18:11:51.346332,4541.06060561,3709.09090872,4196.424242,12.3636363624,3880.12121173,197.818181798,3925.45454506,313.212121181,4289.15151472,123.636363624,4428.75757531,2785.93939366,4185.09090867,3111.5151512,4345.81818138,2641.69696943,4961.93939344,2987.87878758,4146.96969656,16.4848484832,4430.81818138,3313.45454512,4296.87878745,366.787878751,4842.93939346,651.151515086,4561.1515147,3428.84848451,42.0,42.0,?
2017-07-31 18:11:51.355337,4534.87878743,3709.09090872,4193.84848443,12.3636363624,3878.06060567,197.818181798,3916.69696931,313.212121181,4288.63636321,123.636363624,4428.2424238,2785.93939366,4186.63636322,3111.5151512,4345.81818138,2641.69696943,4960.90909041,2987.87878758,4142.84848443,16.4848484832,4422.57575713,3313.45454512,4293.78787836,366.787878751,4830.57575709,651.151515086,4555.99999954,3428.84848451,42.0,42.0,?
2017-07-31 18:11:51.366576,4530.24242379,3709.09090872,4198.48484806,12.3636363624,3874.45454507,197.818181798,3908.96969658,313.212121181,4290.69696927,123.636363624,4425.66666622,2785.93939366,4190.24242382,3111.5151512,4348.90909047,2641.69696943,4966.06060556,2987.87878758,4143.87878746,16.4848484832,4423.60606016,3313.45454512,4294.30302987,366.787878751,4837.27272679,651.151515086,4553.42424197,3428.84848451,42.0,42.0,?
2017-07-31 18:11:51.372449,4532.30302985,3709.09090872,4196.93939352,12.3636363624,3873.42424204,197.818181798,3913.60606021,313.212121181,4292.75757533,123.636363624,4425.66666622,2785.93939366,4195.90909049,3111.5151512,4352.51515108,2641.69696943,4972.24242375,2987.87878758,4152.63636322,16.4848484832,4428.2424238,3313.45454512,4295.3333329,366.787878751,4840.87878739,651.151515086,4555.48484803,3428.84848451,42.0,42.0,?
2017-07-31 18:11:51.376676,4534.87878743,3709.09090872,4194.36363594,12.3636363624,3872.90909052,197.818181798,3917.21212082,313.212121181,4294.81818139,123.636363624,4427.21212077,2785.93939366,4197.96969655,3111.5151512,4355.60606017,2641.69696943,4977.3939389,2987.87878758,4156.24242383,16.4848484832,4430.30302986,3313.45454512,4294.81818139,366.787878751,4840.36363588,651.151515086,4558.57575712,3428.84848451,42.0,42.0,?
2017-07-31 18:11:51.386343,4537.454545,3709.09090872,4197.96969655,12.3636363624,3873.93939355,197.818181798,3910.51515112,313.212121181,4291.7272723,123.636363624,4426.18181774,2785.93939366,4195.90909049,3111.5151512,4354.06060563,2641.69696943,4973.78787829,2987.87878758,4153.15151474,16.4848484832,4433.90909047,3313.45454512,4294.81818139,366.787878751,4847.57575709,651.151515086,4560.12121167,3428.84848451,42.0,42.0,?
2017-07-31 18:11:51.393564,4542.60606015,3709.09090872,4195.39393897,12.3636363624,3877.03030264,197.818181798,3907.42424203,313.212121181,4285.0303026,123.636363624,4423.09090865,2785.93939366,4194.87878746,3111.5151512,4349.42424199,2641.69696943,4969.15151465,2987.87878758,4152.63636322,16.4848484832,4436.48484804,3313.45454512,4293.78787836,366.787878751,4842.42424194,651.151515086,4564.24242379,3428.84848451,42.0,42.0,?
2017-07-31 18:11:51.400637,4540.54545409,3709.09090872,4193.33333291,12.3636363624,3873.42424204,197.818181798,3909.48484809,313.212121181,4283.48484806,123.636363624,4421.03030259,2785.93939366,4187.66666625,3111.5151512,4346.3333329,2641.69696943,4969.66666617,2987.87878758,4151.09090868,16.4848484832,4432.87878744,3313.45454512,4295.3333329,366.787878751,4842.93939346,651.151515086,4563.21212076,3428.84848451,42.0,42.0,?
2017-07-31 18:11:51.410344,4528.18181773,3709.09090872,4191.27272685,12.3636363624,3865.69696931,197.818181798,3911.03030264,313.212121181,4285.54545412,123.636363624,4422.06060562,2785.93939366,4183.03030261,3111.5151512,4346.3333329,2641.69696943,4969.66666617,2987.87878758,4148.5151511,16.4848484832,4423.60606016,3313.45454512,4294.81818139,366.787878751,4837.7878783,651.151515086,4549.81818136,3428.84848451,42.0,42.0,?
2017-07-31 18:11:51.422706,4525.60606015,3709.09090872,4192.8181814,12.3636363624,3861.57575719,197.818181798,3910.51515112,313.212121181,4285.0303026,123.636363624,4424.12121168,2785.93939366,4181.99999958,3111.5151512,4345.30302987,2641.69696943,4963.9999995,2987.87878758,4154.18181777,16.4848484832,4421.03030259,3313.45454512,4294.81818139,366.787878751,4833.15151467,651.151515086,4543.63636318,3428.84848451,42.0,42.0,?
2017-07-31 18:11:51.429962,4529.72727227,3709.09090872,4200.03030261,12.3636363624,3856.93939355,197.818181798,3905.87878749,313.212121181,4288.12121169,123.636363624,4423.09090865,2785.93939366,4177.36363595,3111.5151512,4342.21212078,2641.69696943,4961.42424193,2987.87878758,4163.96969655,16.4848484832,4427.21212077,3313.45454512,4297.39393896,366.787878751,4842.42424194,651.151515086,4548.27272682,3428.84848451,42.0,42.0,?
2017-07-31 18:11:51.433636,4528.69696924,3709.09090872,4195.90909049,12.3636363624,3856.93939355,197.818181798,3903.30302991,313.212121181,4291.7272723,123.636363624,4421.5454541,2785.93939366,4178.90909049,3111.5151512,4346.84848441,2641.69696943,4966.57575708,2987.87878758,4175.30302989,16.4848484832,4430.30302986,3313.45454512,4293.27272684,366.787878751,4839.84848436,651.151515086,4546.21212076,3428.84848451,42.0,42.0,?
2017-07-31 18:11:51.440184,4527.66666621,3709.09090872,4194.87878746,12.3636363624,3858.99999961,197.818181798,3906.90909052,313.212121181,4280.39393897,123.636363624,4421.03030259,2785.93939366,4187.15151473,3111.5151512,4354.57575714,2641.69696943,4970.6969692,2987.87878758,4185.09090867,16.4848484832,4430.30302986,3313.45454512,4293.78787836,366.787878751,4843.45454497,651.151515086,4542.09090864,3428.84848451,42.0,42.0,?
2017-07-31 18:11:51.447638,4528.69696924,3709.09090872,4198.48484806,12.3636363624,3861.57575719,197.818181798,3913.60606021,313.212121181,4273.18181775,123.636363624,4418.96969653,2785.93939366,4189.21212079,3111.5151512,4356.6363632,2641.69696943,4973.78787829,2987.87878758,4196.424242,16.4848484832,4427.21212077,3313.45454512,4296.87878745,366.787878751,4840.36363588,651.151515086,4532.30302985,3428.84848451,42.0,42.0,?
2017-07-31 18:11:51.457267,4527.66666621,3709.09090872,4194.36363594,12.3636363624,3862.60606022,197.818181798,3913.0909087,313.212121181,4278.84848442,123.636363624,4418.96969653,2785.93939366,4187.66666625,3111.5151512,4358.69696926,2641.69696943,4976.36363587,2987.87878758,4207.24242382,16.4848484832,4427.21212077,3313.45454512,4296.87878745,366.787878751,4832.12121164,651.151515086,4507.06060561,3428.84848451,42.0,42.0,?
2017-07-31 18:11:51.463715,4521.48484803,3709.09090872,4191.78787837,12.3636363624,3858.4848481,197.818181798,3909.48484809,313.212121181,4281.93939351,123.636363624,4419.99999956,2785.93939366,4187.15151473,3111.5151512,4358.18181775,2641.69696943,4974.30302981,2987.87878758,4205.18181776,16.4848484832,4428.2424238,3313.45454512,4298.42424199,366.787878751,4836.24242376,651.151515086,4492.12121167,3428.84848451,42.0,42.0,?
2017-07-31 18:11:51.471186,4522.51515106,3709.09090872,4190.75757534,12.3636363624,3860.03030264,197.818181798,3915.15151476,313.212121181,4283.99999957,123.636363624,4419.48484804,2785.93939366,4189.21212079,3111.5151512,4358.69696926,2641.69696943,4974.30302981,2987.87878758,4204.15151473,16.4848484832,4425.66666622,3313.45454512,4296.87878745,366.787878751,4831.09090861,651.151515086,4495.72727228,3428.84848451,42.0,42.0,?
2017-07-31 18:11:51.478565,4532.30302985,3709.09090872,4195.90909049,12.3636363624,3867.24242386,197.818181798,3916.69696931,313.212121181,4286.06060563,123.636363624,4419.48484804,2785.93939366,4192.30302988,3111.5151512,4360.24242381,2641.69696943,4973.78787829,2987.87878758,4206.21212079,16.4848484832,4428.2424238,3313.45454512,4298.93939351,366.787878751,4837.27272679,651.151515086,4500.36363591,3428.84848451,42.0,42.0,?
2017-07-31 18:11:51.487349,4532.30302985,3709.09090872,4197.96969655,12.3636363624,3869.81818143,197.818181798,3911.03030264,313.212121181,4281.424242,123.636363624,4422.06060562,2785.93939366,4194.36363594,3111.5151512,4359.21212078,2641.69696943,4972.75757526,2987.87878758,4205.18181776,16.4848484832,4431.84848441,3313.45454512,4298.93939351,366.787878751,4838.81818133,651.151515086,4498.30302985,3428.84848451,42.0,42.0,?
2017-07-31 18:11:51.495019,4516.8484844,3709.09090872,4197.45454503,12.3636363624,3865.1818178,197.818181798,3913.0909087,313.212121181,4286.06060563,123.636363624,4423.60606016,2785.93939366,4183.54545413,3111.5151512,4353.54545411,2641.69696943,4968.12121162,2987.87878758,4187.66666625,16.4848484832,4418.45454501,3313.45454512,4294.81818139,366.787878751,4826.96969649,651.151515086,4485.93939349,3428.84848451,42.0,42.0,?
2017-07-31 18:11:51.504450,4516.8484844,3709.09090872,4197.45454503,12.3636363624,3865.1818178,197.818181798,3913.0909087,313.212121181,4286.06060563,123.636363624,4423.60606016,2785.93939366,4183.54545413,3111.5151512,4353.54545411,2641.69696943,4968.12121162,2987.87878758,4187.66666625,16.4848484832,4418.45454501,3313.45454512,4294.81818139,366.787878751,4826.96969649,651.151515086,4485.93939349,3428.84848451,42.0,42.0,?
2017-07-31 18:11:51.510701,4518.39393894,3709.09090872,4194.36363594,12.3636363624,3869.30302992,197.818181798,3914.63636324,313.212121181,4286.06060563,123.636363624,4423.09090865,2785.93939366,4184.57575716,3111.5151512,4356.6363632,2641.69696943,4972.75757526,2987.87878758,4189.72727231,16.4848484832,4422.57575713,3313.45454512,4296.36363593,366.787878751,4831.09090861,651.151515086,4483.36363592,3428.84848451,42.0,42.0,?
2017-07-31 18:11:51.520348,4515.81818137,3709.09090872,4193.33333291,12.3636363624,3869.81818143,197.818181798,3917.21212082,313.212121181,4281.424242,123.636363624,4423.09090865,2785.93939366,4188.69696928,3111.5151512,4362.81818138,2641.69696943,4979.96969647,2987.87878758,4201.57575716,16.4848484832,4430.30302986,3313.45454512,4297.90909048,366.787878751,4835.21212073,651.151515086,4486.45454501,3428.84848451,42.0,42.0,?
2017-07-31 18:11:51.526796,4516.33333288,3709.09090872,4195.39393897,12.3636363624,3871.87878749,197.818181798,3913.0909087,313.212121181,4283.48484806,123.636363624,4420.51515107,2785.93939366,4186.1212117,3111.5151512,4363.3333329,2641.69696943,4976.87878738,2987.87878758,4201.06060564,16.4848484832,4427.72727228,3313.45454512,4298.42424199,366.787878751,4833.15151467,651.151515086,4489.5454541,3428.84848451,42.0,42.0,?
2017-07-31 18:11:51.536892,4519.42424197,3709.09090872,4190.75757534,12.3636363624,3879.60606022,197.818181798,3907.93939355,313.212121181,4289.66666624,123.636363624,4420.51515107,2785.93939366,4189.72727231,3111.5151512,4364.87878744,2641.69696943,4977.90909041,2987.87878758,4195.90909049,16.4848484832,4426.18181774,3313.45454512,4295.3333329,366.787878751,4824.90909043,651.151515086,4491.60606016,3428.84848451,42.0,42.0,?
2017-07-31 18:11:51.542600,4519.93939349,3709.09090872,4194.36363594,12.3636363624,3878.57575719,197.818181798,3909.48484809,313.212121181,4282.96969654,123.636363624,4426.69696925,2785.93939366,4201.06060564,3111.5151512,4368.48484805,2641.69696943,4982.03030253,2987.87878758,4195.90909049,16.4848484832,4434.9393935,3313.45454512,4295.3333329,366.787878751,4837.7878783,651.151515086,4494.18181773,3428.84848451,42.0,42.0,?
2017-07-31 18:11:51.549436,4518.90909046,3709.09090872,4193.33333291,12.3636363624,3872.39393901,197.818181798,3909.99999961,313.212121181,4275.75757533,123.636363624,4431.33333289,2785.93939366,4204.15151473,3111.5151512,4368.48484805,2641.69696943,4984.09090859,2987.87878758,4196.93939352,16.4848484832,4433.39393895,3313.45454512,4294.30302987,366.787878751,4836.75757527,651.151515086,4494.18181773,3428.84848451,42.0,42.0,?
2017-07-31 18:11:51.559233,4516.8484844,3709.09090872,4193.84848443,12.3636363624,3871.36363598,197.818181798,3904.84848446,313.212121181,4280.39393897,123.636363624,4426.18181774,2785.93939366,4195.39393897,3111.5151512,4362.30302987,2641.69696943,4977.3939389,2987.87878758,4193.33333291,16.4848484832,4426.69696925,3313.45454512,4295.84848442,366.787878751,4830.06060558,651.151515086,4493.1515147,3428.84848451,42.0,42.0,?
2017-07-31 18:11:51.565342,4518.39393894,3709.09090872,4201.06060564,12.3636363624,3879.0909087,197.818181798,3905.87878749,313.212121181,4284.51515109,123.636363624,4424.63636319,2785.93939366,4192.30302988,3111.5151512,4361.78787835,2641.69696943,4967.60606011,2987.87878758,4192.30302988,16.4848484832,4430.30302986,3313.45454512,4297.90909048,366.787878751,4836.24242376,651.151515086,4494.18181773,3428.84848451,42.0,42.0,?
2017-07-31 18:11:51.573734,4525.60606015,3709.09090872,4195.39393897,12.3636363624,3888.87878749,197.818181798,3913.60606021,313.212121181,4285.0303026,123.636363624,4427.72727228,2785.93939366,4195.90909049,3111.5151512,4366.9393935,2641.69696943,4974.81818132,2987.87878758,4200.03030261,16.4848484832,4438.03030259,3313.45454512,4296.36363593,366.787878751,4835.72727224,651.151515086,4500.87878743,3428.84848451,42.0,42.0,?
2017-07-31 18:11:51.580624,4530.7575753,3709.09090872,4193.33333291,12.3636363624,3886.81818143,197.818181798,3911.54545415,313.212121181,4285.0303026,123.636363624,4425.66666622,2785.93939366,4192.30302988,3111.5151512,4365.90909047,2641.69696943,4986.66666617,2987.87878758,4203.1212117,16.4848484832,4439.06060562,3313.45454512,4296.87878745,366.787878751,4840.87878739,651.151515086,4507.06060561,3428.84848451,42.0,42.0,?
2017-07-31 18:11:51.590420,4528.18181773,3709.09090872,4197.45454503,12.3636363624,3884.75757537,197.818181798,3909.99999961,313.212121181,4289.15151472,123.636363624,4424.63636319,2785.93939366,4185.09090867,3111.5151512,4363.84848441,2641.69696943,4988.21212071,2987.87878758,4203.1212117,16.4848484832,4435.96969653,3313.45454512,4294.81818139,366.787878751,4834.69696921,651.151515086,4505.51515106,3428.84848451,42.0,42.0,?
2017-07-31 18:11:51.596765,4523.03030258,3709.09090872,4197.45454503,12.3636363624,3887.33333294,197.818181798,3912.06060567,313.212121181,4291.21212078,123.636363624,4425.15151471,2785.93939366,4185.09090867,3111.5151512,4365.39393896,2641.69696943,4985.12121162,2987.87878758,4204.66666625,16.4848484832,4434.42424198,3313.45454512,4293.78787836,366.787878751,4829.54545406,651.151515086,4498.30302985,3428.84848451,42.0,42.0,?
2017-07-31 18:11:51.605236,4519.93939349,3709.09090872,4196.424242,12.3636363624,3886.81818143,197.818181798,3913.60606021,313.212121181,4286.06060563,123.636363624,4426.69696925,2785.93939366,4191.27272685,3111.5151512,4366.9393935,2641.69696943,4985.12121162,2987.87878758,4199.5151511,16.4848484832,4431.33333289,3313.45454512,4295.3333329,366.787878751,4835.72727224,651.151515086,4497.78787834,3428.84848451,42.0,42.0,?
2017-07-31 18:11:51.612953,4521.48484803,3709.09090872,4194.87878746,12.3636363624,3885.7878784,197.818181798,3917.72727234,313.212121181,4289.66666624,123.636363624,4428.2424238,2785.93939366,4198.48484806,3111.5151512,4368.48484805,2641.69696943,4987.18181768,2987.87878758,4191.78787837,16.4848484832,4429.78787834,3313.45454512,4293.27272684,366.787878751,4827.484848,651.151515086,4501.90909046,3428.84848451,42.0,42.0,?
2017-07-31 18:11:51.620388,4523.54545409,3709.09090872,4197.45454503,12.3636363624,3880.12121173,197.818181798,3911.54545415,313.212121181,4297.39393896,123.636363624,4429.27272683,2785.93939366,4193.84848443,3111.5151512,4363.3333329,2641.69696943,4980.48484799,2987.87878758,4183.03030261,16.4848484832,4427.72727228,3313.45454512,4294.81818139,366.787878751,4828.51515103,651.151515086,4501.90909046,3428.84848451,42.0,42.0,?
2017-07-31 18:11:51.627756,4521.48484803,3717.33333296,4196.424242,12.3636363624,3879.60606022,197.818181798,3902.7878784,313.212121181,4296.36363593,123.636363624,4429.27272683,2785.93939366,4189.21212079,3111.5151512,4362.30302987,2641.69696943,4976.87878738,2987.87878758,4179.42424201,16.4848484832,4424.63636319,3313.45454512,4296.36363593,366.787878751,4829.54545406,651.151515086,4500.87878743,3428.84848451,42.0,42.0,?
2017-07-31 18:11:51.635421,4519.42424197,3717.33333296,4193.84848443,0.0,3887.84848446,197.818181798,3904.33333294,313.212121181,4288.63636321,123.636363624,4432.36363592,2785.93939366,4200.54545413,3111.5151512,4374.66666623,2641.69696943,4986.15151465,2987.87878758,4184.57575716,16.4848484832,4426.69696925,3313.45454512,4295.3333329,366.787878751,4826.45454497,651.151515086,4504.48484803,3428.84848451,42.0,42.0,?
2017-07-31 18:11:51.644730,4515.81818137,3717.33333296,4196.424242,0.0,3884.24242385,197.818181798,3908.45454506,313.212121181,4286.57575715,123.636363624,4436.99999956,2785.93939366,4209.30302988,3111.5151512,4382.90909047,2641.69696943,4989.24242374,2987.87878758,4184.06060564,16.4848484832,4425.15151471,3313.45454512,4295.84848442,366.787878751,4830.06060558,651.151515086,4503.454545,3432.96969663,42.0,42.0,?
2017-07-31 18:11:51.651549,4517.36363591,3717.33333296,4194.36363594,0.0,3879.60606022,197.818181798,3913.60606021,313.212121181,4296.36363593,123.636363624,4438.5454541,2785.93939366,4211.36363594,3111.5151512,4385.48484805,2641.69696943,4988.21212071,2987.87878758,4181.48484807,16.4848484832,4416.90909047,3313.45454512,4293.78787836,366.787878751,4821.30302982,651.151515086,4499.33333288,3432.96969663,42.0,42.0,?
2017-07-31 18:11:51.659993,4523.03030258,3717.33333296,4193.84848443,0.0,3885.27272688,197.818181798,3913.0909087,325.575757543,4298.93939351,123.636363624,4435.96969653,2785.93939366,4208.78787837,3111.5151512,4382.90909047,2641.69696943,4990.78787829,2987.87878758,4183.54545413,16.4848484832,4419.48484804,3313.45454512,4295.3333329,366.787878751,4824.39393891,651.151515086,4503.96969652,3432.96969663,42.0,42.0,?
2017-07-31 18:11:51.667995,4523.03030258,3717.33333296,4194.36363594,0.0,3888.36363597,197.818181798,3907.42424203,325.575757543,4297.39393896,123.636363624,4431.33333289,2785.93939366,4201.57575716,3111.5151512,4373.6363632,2641.69696943,4990.27272677,2987.87878758,4182.5151511,16.4848484832,4420.51515107,3313.45454512,4297.39393896,366.787878751,4827.484848,651.151515086,4506.54545409,3432.96969663,42.0,42.0,?
2017-07-31 18:11:51.675662,4521.48484803,3717.33333296,4194.87878746,0.0,3883.72727234,197.818181798,3908.45454506,325.575757543,4299.45454502,123.636363624,4428.75757531,2790.06060578,4196.424242,3111.5151512,4367.96969653,2641.69696943,4981.51515102,2987.87878758,4174.27272686,16.4848484832,4414.84848441,3313.45454512,4294.30302987,366.787878751,4821.30302982,651.151515086,4503.96969652,3432.96969663,42.0,42.0,?
2017-07-31 18:11:51.682058,4520.96969652,3717.33333296,4198.99999958,0.0,3877.54545416,197.818181798,3909.99999961,325.575757543,4293.78787836,123.636363624,4429.27272683,2790.06060578,4190.75757534,3107.39393908,4364.87878744,2641.69696943,4967.09090859,2987.87878758,4166.54545413,16.4848484832,4412.27272683,3313.45454512,4293.78787836,366.787878751,4824.39393891,651.151515086,4502.42424197,3432.96969663,42.0,42.0,?
2017-07-31 18:11:51.689765,4516.33333288,3717.33333296,4192.30302988,0.0,3875.4848481,197.818181798,3908.96969658,325.575757543,4293.78787836,123.636363624,4436.48484804,2790.06060578,4192.8181814,3107.39393908,4369.51515108,2637.57575731,4969.15151465,2987.87878758,4168.60606019,16.4848484832,4409.18181774,3313.45454512,4294.81818139,366.787878751,4817.1818177,651.151515086,4495.72727228,3432.96969663,42.0,42.0,?
2017-07-31 18:11:51.701144,4514.78787834,3717.33333296,4192.30302988,0.0,3875.99999961,197.818181798,3907.42424203,325.575757543,4304.60606018,123.636363624,4440.09090865,2790.06060578,4203.1212117,3107.39393908,4378.27272683,2637.57575731,4983.57575708,2996.12121182,4170.15151473,16.4848484832,4409.69696926,3313.45454512,4298.93939351,366.787878751,4819.24242376,651.151515086,4492.12121167,3432.96969663,42.0,42.0,?
2017-07-31 18:11:51.707674,4518.39393894,3717.33333296,4200.03030261,0.0,3874.96969658,197.818181798,3905.87878749,325.575757543,4304.60606018,123.636363624,4434.42424198,2790.06060578,4204.15151473,3107.39393908,4376.21212077,2637.57575731,4987.6969692,2996.12121182,4168.09090867,16.4848484832,4412.78787835,3313.45454512,4298.42424199,366.787878751,4824.39393891,651.151515086,4496.24242379,3432.96969663,42.0,42.0,?
2017-07-31 18:11:51.714544,4521.48484803,3717.33333296,4194.87878746,0.0,3872.90909052,197.818181798,3901.75757537,325.575757543,4292.75757533,123.636363624,4433.39393895,2790.06060578,4194.87878746,3107.39393908,4366.9393935,2637.57575731,4979.96969647,2996.12121182,4167.57575716,16.4848484832,4412.78787835,3321.69696936,4292.24242381,366.787878751,4817.69696922,651.151515086,4496.75757531,3432.96969663,42.0,42.0,?
2017-07-31 18:11:51.720715,4521.99999955,3717.33333296,4191.78787837,0.0,3867.75757537,197.818181798,3898.15151476,325.575757543,4283.99999957,123.636363624,4436.99999956,2790.06060578,4193.33333291,3107.39393908,4364.87878744,2637.57575731,4973.27272678,2996.12121182,4163.45454504,16.4848484832,4413.30302986,3321.69696936,4294.30302987,300.848484818,4824.90909043,651.151515086,4495.72727228,3432.96969663,42.0,42.0,?
2017-07-31 18:11:51.728653,4523.03030258,3717.33333296,4192.30302988,0.0,3869.81818143,197.818181798,3901.75757537,325.575757543,4291.21212078,123.636363624,4438.5454541,2790.06060578,4197.96969655,3107.39393908,4370.54545411,2637.57575731,4977.90909041,2996.12121182,4160.36363595,16.4848484832,4411.75757532,3321.69696936,4295.84848442,300.848484818,4822.33333285,642.909090845,4495.72727228,3432.96969663,42.0,42.0,?
2017-07-31 18:11:51.736974,4521.48484803,3717.33333296,4195.39393897,0.0,3872.90909052,197.818181798,3904.84848446,325.575757543,4296.87878745,123.636363624,4434.9393935,2790.06060578,4194.36363594,3107.39393908,4368.48484805,2637.57575731,4979.45454496,2996.12121182,4158.8181814,20.606060604,4412.27272683,3321.69696936,4295.84848442,300.848484818,4819.24242376,642.909090845,4497.27272682,3432.96969663,42.0,42.0,?
2017-07-31 18:11:51.745409,4516.8484844,3717.33333296,4198.48484806,0.0,3864.15151477,197.818181798,3899.69696931,325.575757543,4289.15151472,123.636363624,4431.84848441,2790.06060578,4188.69696928,3107.39393908,4362.30302987,2637.57575731,4971.72727223,2996.12121182,4156.75757534,20.606060604,4412.27272683,3325.81818149,4296.36363593,300.848484818,4824.90909043,642.909090845,4495.72727228,3432.96969663,42.0,42.0,?
2017-07-31 18:11:51.755565,4516.33333288,3717.33333296,4192.30302988,0.0,3858.99999961,197.818181798,3897.63636325,325.575757543,4286.57575715,123.636363624,4433.39393895,2790.06060578,4190.75757534,3107.39393908,4364.87878744,2637.57575731,4972.24242375,2996.12121182,4158.8181814,20.606060604,4411.2424238,3325.81818149,4292.75757533,304.969696939,4820.78787831,642.909090845,4493.1515147,3432.96969663,42.0,42.0,?
2017-07-31 18:11:51.761700,4523.54545409,3717.33333296,4193.84848443,0.0,3864.66666628,197.818181798,3898.15151476,325.575757543,4292.24242381,123.636363624,4435.45454501,2790.06060578,4194.87878746,3107.39393908,4370.03030259,2637.57575731,4980.48484799,2996.12121182,4162.93939352,20.606060604,4417.42424198,3325.81818149,4293.27272684,304.969696939,4827.484848,642.909090845,4500.87878743,3432.96969663,42.0,42.0,?
2017-07-31 18:11:51.768392,4525.09090864,3717.33333296,4195.90909049,0.0,3866.21212083,197.818181798,3897.12121173,325.575757543,4295.84848442,123.636363624,4433.39393895,2790.06060578,4192.8181814,3107.39393908,4369.51515108,2637.57575731,4978.93939344,2996.12121182,4160.36363595,20.606060604,4416.39393895,3325.81818149,4293.27272684,304.969696939,4822.84848437,642.909090845,4502.42424197,3432.96969663,42.0,42.0,?
2017-07-31 18:11:51.775788,4515.30302985,3717.33333296,4194.87878746,0.0,3857.45454507,197.818181798,3891.45454507,325.575757543,4290.69696927,123.636363624,4424.12121168,2790.06060578,4182.5151511,3107.39393908,4359.21212078,2637.57575731,4968.12121162,2996.12121182,4149.54545413,20.606060604,4404.03030259,3325.81818149,4293.78787836,304.969696939,4813.06060558,642.909090845,4491.09090864,3432.96969663,42.0,42.0,?
2017-07-31 18:11:51.784337,4508.60606016,3717.33333296,4196.93939352,0.0,3852.81818143,197.818181798,3886.30302991,325.575757543,4279.36363594,123.636363624,4419.48484804,2790.06060578,4175.30302989,3107.39393908,4350.96969653,2637.57575731,4963.9999995,2996.12121182,4139.75757534,20.606060604,4399.90909047,3325.81818149,4294.81818139,304.969696939,4817.1818177,642.909090845,4489.03030258,3432.96969663,42.0,42.0,?
2017-07-31 18:11:51.792071,4513.24242379,3717.33333296,4192.30302988,0.0,3857.96969658,197.818181798,3884.24242385,325.575757543,4272.66666624,123.636363624,4419.99999956,2790.06060578,4174.27272686,3107.39393908,4350.96969653,2637.57575731,4968.12121162,2996.12121182,4145.42424201,20.606060604,4408.15151471,3325.81818149,4290.69696927,304.969696939,4814.09090861,642.909090845,4497.27272682,3432.96969663,42.0,42.0,?
2017-07-31 18:11:51.800499,4519.93939349,3717.33333296,4194.87878746,0.0,3862.0909087,197.818181798,3884.24242385,325.575757543,4276.27272685,123.636363624,4420.51515107,2790.06060578,4169.63636322,3107.39393908,4347.36363593,2637.57575731,4968.12121162,2996.12121182,4153.66666625,20.606060604,4417.42424198,3325.81818149,4293.78787836,304.969696939,4821.81818134,642.909090845,4501.90909046,3432.96969663,42.0,42.0,?
2017-07-31 18:11:51.807277,4521.48484803,3717.33333296,4196.424242,0.0,3867.24242386,197.818181798,3890.93939355,325.575757543,4283.48484806,123.636363624,4421.5454541,2790.06060578,4169.1212117,3107.39393908,4343.75757532,2637.57575731,4964.51515102,2996.12121182,4153.15151474,20.606060604,4416.90909047,3325.81818149,4296.87878745,304.969696939,4822.33333285,642.909090845,4503.96969652,3432.96969663,42.0,42.0,?
2017-07-31 18:11:51.815203,4522.51515106,3717.33333296,4192.8181814,0.0,3871.87878749,197.818181798,3899.18181779,325.575757543,4282.96969654,123.636363624,4423.09090865,2790.06060578,4179.93939352,3107.39393908,4354.57575714,2637.57575731,4970.6969692,2996.12121182,4151.09090868,20.606060604,4416.90909047,3325.81818149,4296.36363593,304.969696939,4820.27272679,642.909090845,4507.06060561,3432.96969663,42.0,42.0,?
2017-07-31 18:11:51.824934,4521.48484803,3717.33333296,4195.90909049,0.0,3868.7878784,197.818181798,3901.24242385,325.575757543,4281.93939351,123.636363624,4426.69696925,2790.06060578,4186.1212117,3107.39393908,4364.87878744,2637.57575731,4979.45454496,2996.12121182,4152.12121171,20.606060604,4421.03030259,3325.81818149,4298.93939351,304.969696939,4831.09090861,642.909090845,4506.54545409,3432.96969663,42.0,42.0,?
2017-07-31 18:11:51.831316,4516.8484844,3717.33333296,4193.84848443,0.0,3862.0909087,197.818181798,3901.75757537,325.575757543,4290.69696927,123.636363624,4430.81818138,2790.06060578,4188.18181776,3107.39393908,4366.9393935,2637.57575731,4979.45454496,2996.12121182,4150.06060565,20.606060604,4415.36363592,3325.81818149,4294.81818139,304.969696939,4820.78787831,642.909090845,4499.8484844,3432.96969663,42.0,42.0,?
2017-07-31 18:11:51.838690,4508.09090864,3717.33333296,4193.84848443,0.0,3853.84848446,197.818181798,3896.0909087,325.575757543,4289.66666624,123.636363624,4428.75757531,2790.06060578,4188.18181776,3107.39393908,4363.84848441,2637.57575731,4969.15151465,2996.12121182,4139.75757534,20.606060604,4405.57575714,3325.81818149,4293.27272684,304.969696939,4814.09090861,642.909090845,4492.63636319,3432.96969663,42.0,42.0,?
2017-07-31 18:11:51.846915,4508.09090864,3717.33333296,4195.39393897,0.0,3853.33333295,197.818181798,3889.393939,325.575757543,4281.93939351,123.636363624,4425.15151471,2790.06060578,4185.09090867,3107.39393908,4357.15151472,2637.57575731,4962.45454496,2996.12121182,4137.18181777,20.606060604,4406.60606017,3325.81818149,4294.81818139,304.969696939,4818.21212073,642.909090845,4492.63636319,3432.96969663,42.0,42.0,?
2017-07-31 18:11:51.855546,4519.42424197,3717.33333296,4193.84848443,0.0,3861.06060567,197.818181798,3892.4848481,325.575757543,4283.48484806,123.636363624,4426.18181774,2790.06060578,4187.15151473,3107.39393908,4359.72727229,2637.57575731,4968.63636314,2996.12121182,4143.36363595,20.606060604,4415.87878744,3325.81818149,4294.30302987,304.969696939,4822.33333285,642.909090845,4499.8484844,3432.96969663,42.0,42.0,?
2017-07-31 18:11:51.862692,4521.48484803,3717.33333296,4197.45454503,0.0,3862.60606022,197.818181798,3891.45454507,325.575757543,4285.0303026,123.636363624,4423.60606016,2790.06060578,4187.66666625,3107.39393908,4363.84848441,2637.57575731,4974.30302981,2996.12121182,4142.84848443,20.606060604,4418.96969653,3325.81818149,4294.30302987,304.969696939,4829.54545406,642.909090845,4502.93939349,3432.96969663,42.0,42.0,?
2017-07-31 18:11:51.869860,4515.30302985,3717.33333296,4193.33333291,0.0,3860.03030264,197.818181798,3879.60606022,325.575757543,4279.36363594,123.636363624,4418.96969653,2790.06060578,4187.15151473,3107.39393908,4360.75757532,2637.57575731,4974.30302981,2996.12121182,4141.30302989,20.606060604,4412.78787835,3325.81818149,4292.24242381,304.969696939,4820.78787831,642.909090845,4499.33333288,3432.96969663,42.0,42.0,?
2017-07-31 18:11:51.878247,4505.51515106,3717.33333296,4192.30302988,0.0,3853.33333295,197.818181798,3872.90909052,325.575757543,4272.15151472,123.636363624,4416.90909047,2790.06060578,4186.63636322,3107.39393908,4355.60606017,2637.57575731,4970.18181768,2996.12121182,4135.63636322,20.606060604,4403.51515107,3325.81818149,4293.78787836,304.969696939,4815.12121164,642.909090845,4489.5454541,3432.96969663,42.0,42.0,?
2017-07-31 18:11:51.885655,4497.78787834,3717.33333296,4196.424242,0.0,3847.66666628,197.818181798,3875.99999961,325.575757543,4273.69696927,123.636363624,4415.36363592,2790.06060578,4184.57575716,3107.39393908,4358.18181775,2637.57575731,4969.66666617,2996.12121182,4127.39393898,20.606060604,4394.2424238,3325.81818149,4294.81818139,304.969696939,4808.93939346,642.909090845,4480.27272682,3432.96969663,42.0,42.0,?
2017-07-31 18:11:51.893122,4500.36363591,3717.33333296,4192.8181814,0.0,3849.21212083,197.818181798,3877.03030264,325.575757543,4281.424242,123.636363624,4415.36363592,2790.06060578,4183.03030261,3107.39393908,4359.21212078,2637.57575731,4971.72727223,2996.12121182,4126.36363595,20.606060604,4394.75757532,3325.81818149,4292.75757533,304.969696939,4802.75757528,642.909090845,4483.36363592,3432.96969663,42.0,42.0,?
2017-07-31 18:11:51.901862,4500.36363591,3717.33333296,4193.33333291,0.0,3842.51515113,197.818181798,3873.42424204,325.575757543,4282.96969654,123.636363624,4418.45454501,2790.06060578,4177.36363595,3107.39393908,4348.90909047,2637.57575731,4963.48484799,2996.12121182,4122.75757535,20.606060604,4398.36363592,3325.81818149,4293.27272684,304.969696939,4813.06060558,642.909090845,4487.48484804,3432.96969663,42.0,42.0,?
2017-07-31 18:11:51.909437,4490.57575713,3717.33333296,4194.36363594,0.0,3836.84848446,197.818181798,3881.15151476,325.575757543,4284.51515109,123.636363624,4421.03030259,2790.06060578,4173.75757534,3107.39393908,4348.90909047,2637.57575731,4957.81818132,2996.12121182,4117.60606019,20.606060604,4389.60606017,3325.81818149,4291.7272723,304.969696939,4807.90909043,642.909090845,4479.75757531,3432.96969663,42.0,42.0,?
2017-07-31 18:11:51.916727,4491.60606016,3717.33333296,4193.84848443,0.0,3841.4848481,197.818181798,3891.45454507,325.575757543,4286.06060563,123.636363624,4420.51515107,2790.06060578,4176.33333292,3107.39393908,4355.09090866,2637.57575731,4962.45454496,2996.12121182,4116.57575716,20.606060604,4383.9393935,3325.81818149,4293.27272684,304.969696939,4803.27272679,642.909090845,4477.69696925,3432.96969663,42.0,42.0,?
2017-07-31 18:11:51.926801,4498.81818137,3717.33333296,4194.36363594,0.0,3848.69696931,197.818181798,3888.36363597,325.575757543,4278.33333291,123.636363624,4416.39393895,2790.06060578,4177.87878746,3107.39393908,4350.96969653,2637.57575731,4965.54545405,2996.12121182,4120.69696928,20.606060604,4387.54545411,3325.81818149,4296.36363593,304.969696939,4806.36363588,642.909090845,4485.93939349,3432.96969663,42.0,42.0,?
2017-07-31 18:11:51.933282,4499.8484844,3717.33333296,4195.39393897,0.0,3857.96969658,197.818181798,3889.393939,325.575757543,4279.87878745,123.636363624,4413.30302986,2790.06060578,4175.8181814,3107.39393908,4347.87878744,2637.57575731,4959.36363587,2996.12121182,4132.54545413,20.606060604,4392.69696926,3325.81818149,4293.27272684,304.969696939,4799.66666619,642.909090845,4491.09090864,3432.96969663,42.0,42.0,?
2017-07-31 18:11:51.940230,4499.8484844,3717.33333296,4195.39393897,0.0,3857.96969658,197.818181798,3889.393939,325.575757543,4279.87878745,123.636363624,4411.2424238,2790.06060578,4170.66666625,3107.39393908,4347.87878744,2637.57575731,4959.36363587,2996.12121182,4132.54545413,20.606060604,4395.78787835,3325.81818149,4293.27272684,304.969696939,4807.39393891,642.909090845,4496.24242379,3432.96969663,42.0,42.0,?
2017-07-31 18:11:51.947827,4508.60606016,3717.33333296,4191.27272685,0.0,3861.06060567,197.818181798,3891.96969658,325.575757543,4282.45454503,123.636363624,4412.27272683,2790.06060578,4171.18181776,3107.39393908,4347.36363593,2637.57575731,4958.33333284,2996.12121182,4135.12121171,20.606060604,4402.48484804,3325.81818149,4295.3333329,304.969696939,4811.51515103,642.909090845,4505.51515106,3432.96969663,42.0,42.0,?
2017-07-31 18:11:51.957396,4517.36363591,3717.33333296,4193.84848443,0.0,3867.75757537,197.818181798,3895.57575719,325.575757543,4276.78787836,123.636363624,4412.78787835,2790.06060578,4172.72727231,3107.39393908,4344.78787835,2637.57575731,4970.6969692,2996.12121182,4143.36363595,20.606060604,4413.30302986,3325.81818149,4295.3333329,304.969696939,4814.09090861,642.909090845,4514.27272682,3432.96969663,42.0,42.0,?
2017-07-31 18:11:51.963849,4513.75757531,3717.33333296,4201.06060564,0.0,3864.15151477,197.818181798,3896.60606022,325.575757543,4275.24242381,123.636363624,4412.27272683,2790.06060578,4167.57575716,3107.39393908,4342.21212078,2637.57575731,4972.75757526,2996.12121182,4139.24242383,20.606060604,4411.2424238,3325.81818149,4293.78787836,304.969696939,4818.72727225,642.909090845,4512.21212076,3432.96969663,42.0,42.0,?
2017-07-31 18:11:51.971688,4506.54545409,3717.33333296,4194.87878746,0.0,3856.93939355,197.818181798,3894.03030264,325.575757543,4282.45454503,123.636363624,4412.27272683,2790.06060578,4167.06060564,3107.39393908,4345.81818138,2637.57575731,4963.9999995,2996.12121182,4128.42424201,20.606060604,4399.90909047,3325.81818149,4290.18181775,304.969696939,4805.33333285,642.909090845,4505.51515106,3432.96969663,42.0,42.0,?
2017-07-31 18:11:51.981612,4506.54545409,3717.33333296,4193.84848443,0.0,3857.45454507,197.818181798,3882.69696931,325.575757543,4274.7272723,123.636363624,4412.27272683,2790.06060578,4169.1212117,3107.39393908,4346.84848441,2637.57575731,4963.9999995,2996.12121182,4127.9090905,20.606060604,4399.39393895,3325.81818149,4291.7272723,304.969696939,4809.45454497,642.909090845,4507.57575713,3432.96969663,42.0,42.0,?
2017-07-31 18:11:51.989258,4510.66666622,3717.33333296,4194.36363594,0.0,3859.51515113,197.818181798,3885.27272688,325.575757543,4268.0303026,123.636363624,4411.2424238,2790.06060578,4167.06060564,3107.39393908,4343.75757532,2637.57575731,4970.18181768,2996.12121182,4132.03030262,20.606060604,4401.96969653,3325.81818149,4293.27272684,304.969696939,4813.06060558,642.909090845,4510.66666622,3432.96969663,42.0,42.0,?
2017-07-31 18:11:51.996623,4511.18181773,3717.33333296,4192.30302988,0.0,3857.45454507,197.818181798,3895.06060567,325.575757543,4279.36363594,123.636363624,4413.81818138,2790.06060578,4170.66666625,3107.39393908,4345.81818138,2637.57575731,4969.15151465,2996.12121182,4130.48484807,20.606060604,4402.48484804,3325.81818149,4293.78787836,304.969696939,4808.93939346,642.909090845,4507.57575713,3432.96969663,42.0,42.0,?
2017-07-31 18:11:52.003504,4510.66666622,3717.33333296,4196.424242,0.0,3859.51515113,197.818181798,3890.93939355,325.575757543,4282.45454503,123.636363624,4421.03030259,2790.06060578,4175.30302989,3107.39393908,4348.39393896,2637.57575731,4967.09090859,2996.12121182,4128.93939353,20.606060604,4406.09090865,3325.81818149,4294.81818139,304.969696939,4817.69696922,642.909090845,4507.06060561,3432.96969663,42.0,42.0,?
2017-07-31 18:11:52.010947,4514.78787834,3717.33333296,4191.27272685,0.0,3868.7878784,197.818181798,3887.33333294,325.575757543,4277.30302988,123.636363624,4424.63636319,2790.06060578,4176.33333292,3107.39393908,4351.48484805,2637.57575731,4970.6969692,2996.12121182,4133.06060565,20.606060604,4409.18181774,3325.81818149,4290.18181775,304.969696939,4814.09090861,642.909090845,4512.21212076,3432.96969663,42.0,42.0,?
2017-07-31 18:11:52.021011,4515.30302985,3717.33333296,4190.75757534,0.0,3865.1818178,197.818181798,3892.99999961,325.575757543,4278.33333291,123.636363624,4421.03030259,2790.06060578,4178.90909049,3107.39393908,4349.9393935,2637.57575731,4970.6969692,2996.12121182,4133.06060565,20.606060604,4411.2424238,3325.81818149,4291.21212078,304.969696939,4815.63636315,642.909090845,4515.30302985,3432.96969663,42.0,42.0,?
2017-07-31 18:11:52.025696,4516.33333288,3717.33333296,4196.93939352,0.0,3862.0909087,197.818181798,3899.69696931,325.575757543,4282.96969654,123.636363624,4419.48484804,2790.06060578,4183.54545413,3107.39393908,4349.42424199,2637.57575731,4969.66666617,2996.12121182,4134.60606019,20.606060604,4412.27272683,3325.81818149,4295.84848442,304.969696939,4818.21212073,642.909090845,4515.30302985,3432.96969663,42.0,42.0,?
2017-07-31 18:11:52.034237,4521.48484803,3717.33333296,4196.424242,0.0,3869.30302992,197.818181798,3901.75757537,325.575757543,4283.48484806,123.636363624,4419.99999956,2790.06060578,4183.54545413,3107.39393908,4353.54545411,2637.57575731,4968.63636314,2996.12121182,4139.75757534,20.606060604,4412.27272683,3325.81818149,4296.36363593,304.969696939,4814.60606012,642.909090845,4519.42424197,3432.96969663,42.0,42.0,?
2017-07-31 18:11:52.043572,4516.8484844,3717.33333296,4195.90909049,0.0,3869.81818143,197.818181798,3902.27272688,325.575757543,4285.54545412,123.636363624,4417.9393935,2790.06060578,4175.30302989,3107.39393908,4349.42424199,2637.57575731,4959.87878738,2996.12121182,4137.69696928,20.606060604,4411.75757532,3325.81818149,4295.3333329,304.969696939,4820.78787831,642.909090845,4517.87878743,3432.96969663,42.0,42.0,?
2017-07-31 18:11:52.049666,4510.1515147,3717.33333296,4191.78787837,0.0,3866.72727234,197.818181798,3902.7878784,325.575757543,4289.66666624,123.636363624,4417.9393935,2790.06060578,4173.75757534,3107.39393908,4347.36363593,2637.57575731,4964.51515102,2996.12121182,4138.72727231,20.606060604,4409.69696926,3325.81818149,4292.24242381,304.969696939,4814.60606012,642.909090845,4510.66666622,3432.96969663,42.0,42.0,?
2017-07-31 18:11:52.057834,4512.21212076,3717.33333296,4195.39393897,0.0,3866.21212083,197.818181798,3901.75757537,325.575757543,4288.63636321,123.636363624,4418.45454501,2790.06060578,4177.36363595,3107.39393908,4353.54545411,2637.57575731,4974.30302981,2996.12121182,4149.03030262,20.606060604,4410.72727229,3325.81818149,4295.3333329,304.969696939,4816.66666619,642.909090845,4509.63636319,3432.96969663,42.0,42.0,?
2017-07-31 18:11:52.066216,4511.69696925,3717.33333296,4198.99999958,0.0,3860.54545416,197.818181798,3896.0909087,325.575757543,4288.63636321,123.636363624,4416.39393895,2790.06060578,4175.8181814,3107.39393908,4354.57575714,2637.57575731,4965.54545405,2996.12121182,4161.90909049,20.606060604,4405.57575714,3325.81818149,4294.81818139,304.969696939,4818.72727225,642.909090845,4507.57575713,3432.96969663,42.0,42.0,?
2017-07-31 18:11:52.074622,4501.90909046,3717.33333296,4192.8181814,0.0,3852.81818143,197.818181798,3892.99999961,325.575757543,4287.09090866,123.636363624,4415.36363592,2790.06060578,4171.18181776,3107.39393908,4351.99999956,2637.57575731,4953.6969692,2996.12121182,4173.75757534,20.606060604,4398.36363592,3325.81818149,4289.15151472,304.969696939,4807.39393891,642.909090845,4497.78787834,3432.96969663,42.0,42.0,?
2017-07-31 18:11:52.083044,4499.33333288,3717.33333296,4195.90909049,0.0,3848.69696931,197.818181798,3895.57575719,325.575757543,4277.81818139,123.636363624,4414.84848441,2790.06060578,4170.15151473,3107.39393908,4349.42424199,2637.57575731,4954.21212072,2996.12121182,4182.5151511,20.606060604,4402.99999956,3325.81818149,4292.24242381,304.969696939,4813.06060558,642.909090845,4491.09090864,3432.96969663,42.0,42.0,?
2017-07-31 18:11:52.088782,4506.54545409,3717.33333296,4196.93939352,0.0,3851.7878784,197.818181798,3896.60606022,325.575757543,4274.21212078,123.636363624,4414.33333289,2790.06060578,4176.84848443,3107.39393908,4351.99999956,2637.57575731,4964.51515102,2996.12121182,4194.36363594,20.606060604,4410.72727229,3325.81818149,4293.78787836,304.969696939,4813.57575709,642.909090845,4490.06060561,3432.96969663,42.0,42.0,?
2017-07-31 18:11:52.099997,4504.99999955,3717.33333296,4197.96969655,0.0,3851.7878784,197.818181798,3891.96969658,325.575757543,4275.75757533,123.636363624,4413.30302986,2790.06060578,4182.5151511,3107.39393908,4357.15151472,2637.57575731,4971.21212072,2996.12121182,4204.66666625,20.606060604,4413.81818138,3325.81818149,4293.78787836,304.969696939,4816.15151467,642.909090845,4489.5454541,3432.96969663,42.0,42.0,?
2017-07-31 18:11:52.104693,4500.36363591,3717.33333296,4198.99999958,0.0,3849.72727234,197.818181798,3888.36363597,325.575757543,4272.66666624,123.636363624,4416.39393895,2790.06060578,4183.54545413,3107.39393908,4358.18181775,2637.57575731,4972.24242375,2996.12121182,4208.27272685,20.606060604,4411.75757532,3325.81818149,4295.84848442,304.969696939,4818.21212073,642.909090845,4484.90909046,3432.96969663,42.0,42.0,?
2017-07-31 18:11:52.113836,4502.93939349,3717.33333296,4191.78787837,0.0,3850.75757537,197.818181798,3887.84848446,325.575757543,4273.69696927,123.636363624,4419.99999956,2790.06060578,4180.45454504,3107.39393908,4355.09090866,2637.57575731,4971.21212072,2996.12121182,4207.24242382,20.606060604,4404.54545411,3325.81818149,4293.78787836,304.969696939,4808.93939346,642.909090845,4480.27272682,3432.96969663,42.0,42.0,?
2017-07-31 18:11:52.119943,4502.93939349,3717.33333296,4192.30302988,0.0,3849.72727234,197.818181798,3885.7878784,325.575757543,4278.84848442,123.636363624,4416.39393895,2790.06060578,4174.27272686,3107.39393908,4350.96969653,2637.57575731,4966.57575708,2996.12121182,4199.5151511,20.606060604,4400.9393935,3325.81818149,4293.78787836,304.969696939,4815.63636315,642.909090845,4482.33333289,3432.96969663,42.0,42.0,?
2017-07-31 18:11:52.129418,4498.81818137,3717.33333296,4194.36363594,0.0,3849.72727234,197.818181798,3885.7878784,325.575757543,4276.27272685,123.636363624,4413.81818138,2790.06060578,4175.8181814,3107.39393908,4352.51515108,2637.57575731,4965.03030253,2996.12121182,4193.84848443,20.606060604,4398.87878744,3325.81818149,4294.30302987,304.969696939,4815.12121164,642.909090845,4483.36363592,3432.96969663,42.0,42.0,?
2017-07-31 18:11:52.135614,4498.81818137,3709.09090872,4195.39393897,0.0,3852.30302992,197.818181798,3885.7878784,325.575757543,4271.12121169,123.636363624,4419.99999956,2790.06060578,4179.93939352,3107.39393908,4354.57575714,2637.57575731,4967.09090859,2996.12121182,4193.33333291,20.606060604,4399.39393895,3325.81818149,4294.81818139,304.969696939,4815.12121164,642.909090845,4479.75757531,3432.96969663,42.0,42.0,?
2017-07-31 18:11:52.144017,4503.454545,3709.09090872,4195.39393897,8.2424242416,3855.90909052,197.818181798,3890.93939355,325.575757543,4272.15151472,123.636363624,4423.09090865,2790.06060578,4179.93939352,3107.39393908,4355.09090866,2637.57575731,4970.18181768,2996.12121182,4195.39393897,20.606060604,4402.99999956,3325.81818149,4295.3333329,304.969696939,4825.42424194,642.909090845,4481.81818137,3432.96969663,42.0,42.0,?
2017-07-31 18:11:52.155187,4506.03030258,3709.09090872,4193.84848443,8.2424242416,3861.57575719,197.818181798,3899.69696931,325.575757543,4274.7272723,123.636363624,4421.03030259,2790.06060578,4180.96969655,3107.39393908,4358.69696926,2637.57575731,4972.24242375,2996.12121182,4200.03030261,20.606060604,4404.03030259,3325.81818149,4293.78787836,304.969696939,4820.27272679,642.909090845,4484.39393895,3453.57575723,42.0,42.0,?
2017-07-31 18:11:52.160708,4505.51515106,3709.09090872,4197.96969655,8.2424242416,3864.15151477,239.030303006,3892.99999961,325.575757543,4272.66666624,123.636363624,4421.03030259,2790.06060578,4185.09090867,3107.39393908,4363.84848441,2637.57575731,4973.78787829,2996.12121182,4199.5151511,20.606060604,4406.09090865,3325.81818149,4297.90909048,304.969696939,4823.8787874,642.909090845,4485.93939349,3453.57575723,42.0,42.0,?
2017-07-31 18:11:52.168226,4503.96969652,3709.09090872,4194.36363594,8.2424242416,3863.12121173,239.030303006,3885.7878784,313.212121181,4274.7272723,123.636363624,4424.12121168,2790.06060578,4188.18181776,3107.39393908,4363.3333329,2637.57575731,4978.93939344,2996.12121182,4193.84848443,20.606060604,4402.99999956,3325.81818149,4296.36363593,304.969696939,4822.33333285,642.909090845,4485.93939349,3453.57575723,42.0,42.0,?
2017-07-31 18:11:52.174681,4504.99999955,3709.09090872,4192.8181814,8.2424242416,3865.69696931,239.030303006,3893.51515113,313.212121181,4277.81818139,160.727272711,4423.60606016,2790.06060578,4187.66666625,3107.39393908,4357.66666623,2637.57575731,4978.93939344,2996.12121182,4194.87878746,20.606060604,4401.96969653,3325.81818149,4291.21212078,304.969696939,4818.72727225,642.909090845,4487.99999955,3453.57575723,42.0,42.0,?
2017-07-31 18:11:52.186354,4509.12121167,3709.09090872,4200.03030261,8.2424242416,3870.33333295,239.030303006,3897.63636325,313.212121181,4273.69696927,160.727272711,4422.06060562,2785.93939366,4189.21212079,3107.39393908,4363.84848441,2637.57575731,4977.90909041,2996.12121182,4205.18181776,20.606060604,4412.27272683,3325.81818149,4292.75757533,304.969696939,4830.06060558,642.909090845,4495.21212076,3453.57575723,42.0,42.0,?
2017-07-31 18:11:52.190957,4508.09090864,3709.09090872,4195.39393897,8.2424242416,3869.81818143,239.030303006,3886.81818143,313.212121181,4265.96969654,160.727272711,4422.06060562,2785.93939366,4189.72727231,3119.75757545,4358.69696926,2637.57575731,4977.90909041,2996.12121182,4194.87878746,20.606060604,4409.18181774,3325.81818149,4294.81818139,304.969696939,4819.24242376,642.909090845,4498.81818137,3453.57575723,42.0,42.0,?
2017-07-31 18:11:52.198183,4508.09090864,3709.09090872,4195.39393897,8.2424242416,3869.81818143,239.030303006,3886.81818143,313.212121181,4265.96969654,160.727272711,4422.06060562,2785.93939366,4189.72727231,3119.75757545,4358.69696926,2637.57575731,4977.90909041,2996.12121182,4194.87878746,20.606060604,4409.18181774,3325.81818149,4294.81818139,304.969696939,4819.24242376,642.909090845,4498.81818137,3453.57575723,42.0,42.0,?
2017-07-31 18:11:52.205657,4507.57575713,3709.09090872,4196.424242,8.2424242416,3866.21212083,239.030303006,3883.21212082,313.212121181,4264.424242,160.727272711,4420.51515107,2785.93939366,4187.66666625,3119.75757545,4353.03030259,2637.57575731,4969.66666617,2987.87878758,4194.36363594,20.606060604,4407.6363632,3325.81818149,4294.30302987,304.969696939,4821.81818134,642.909090845,4498.81818137,3453.57575723,42.0,42.0,?
2017-07-31 18:11:52.213744,4508.09090864,3709.09090872,4196.93939352,8.2424242416,3865.1818178,239.030303006,3882.18181779,313.212121181,4268.54545412,160.727272711,4419.99999956,2785.93939366,4194.36363594,3119.75757545,4361.27272684,2637.57575731,4974.30302981,2987.87878758,4201.57575716,32.9696969664,4411.2424238,3325.81818149,4293.27272684,304.969696939,4820.78787831,642.909090845,4501.39393894,3453.57575723,42.0,42.0,?
2017-07-31 18:11:52.222762,4510.66666622,3709.09090872,4197.96969655,8.2424242416,3866.72727234,239.030303006,3885.7878784,313.212121181,4269.57575715,160.727272711,4419.99999956,2785.93939366,4201.57575716,3119.75757545,4367.96969653,2637.57575731,4987.18181768,2987.87878758,4200.03030261,32.9696969664,4412.78787835,3346.42424209,4298.42424199,304.969696939,4825.93939346,642.909090845,4506.03030258,3453.57575723,42.0,42.0,?
2017-07-31 18:11:52.230525,4512.72727228,3709.09090872,4194.36363594,8.2424242416,3869.81818143,239.030303006,3891.96969658,313.212121181,4270.09090866,160.727272711,4421.5454541,2785.93939366,4204.15151473,3119.75757545,4369.51515108,2637.57575731,4995.42424192,2987.87878758,4200.54545413,32.9696969664,4411.2424238,3346.42424209,4297.39393896,342.060606026,4819.24242376,642.909090845,4507.06060561,3453.57575723,42.0,42.0,?
2017-07-31 18:11:52.238126,4512.21212076,3709.09090872,4194.36363594,8.2424242416,3866.21212083,239.030303006,3889.393939,313.212121181,4271.12121169,160.727272711,4425.66666622,2785.93939366,4197.45454503,3119.75757545,4368.48484805,2637.57575731,4990.78787829,2987.87878758,4197.96969655,32.9696969664,4410.72727229,3346.42424209,4293.78787836,342.060606026,4818.21212073,655.272727207,4502.42424197,3453.57575723,42.0,42.0,?
2017-07-31 18:11:52.245459,4510.1515147,3709.09090872,4195.90909049,8.2424242416,3864.66666628,239.030303006,3886.81818143,313.212121181,4274.21212078,160.727272711,4423.60606016,2785.93939366,4189.72727231,3119.75757545,4364.87878744,2637.57575731,4983.06060556,2987.87878758,4188.69696928,45.3333333288,4406.60606017,3346.42424209,4291.7272723,342.060606026,4818.72727225,655.272727207,4497.78787834,3453.57575723,42.0,42.0,?
2017-07-31 18:11:52.253028,4507.57575713,3709.09090872,4197.96969655,8.2424242416,3868.27272689,239.030303006,3889.393939,313.212121181,4273.18181775,160.727272711,4415.87878744,2785.93939366,4185.60606019,3119.75757545,4356.6363632,2637.57575731,4981.51515102,2987.87878758,4182.5151511,45.3333333288,4400.9393935,3346.42424209,4289.15151472,342.060606026,4809.96969649,655.272727207,4496.75757531,3453.57575723,42.0,42.0,?
2017-07-31 18:11:52.260664,4503.454545,3709.09090872,4198.99999958,8.2424242416,3865.69696931,239.030303006,3889.393939,313.212121181,4265.96969654,160.727272711,4412.27272683,2785.93939366,4183.54545413,3119.75757545,4352.51515108,2637.57575731,4977.3939389,2987.87878758,4182.5151511,45.3333333288,4404.54545411,3346.42424209,4293.27272684,342.060606026,4814.60606012,655.272727207,4499.8484844,3453.57575723,42.0,42.0,?
2017-07-31 18:11:52.270865,4502.93939349,3709.09090872,4194.87878746,8.2424242416,3866.72727234,239.030303006,3880.63636325,313.212121181,4264.424242,160.727272711,4415.36363592,2785.93939366,4183.03030261,3119.75757545,4359.21212078,2637.57575731,4973.78787829,2987.87878758,4185.60606019,45.3333333288,4409.69696926,3346.42424209,4294.30302987,342.060606026,4812.03030255,655.272727207,4504.48484803,3453.57575723,42.0,42.0,?
2017-07-31 18:11:52.277352,4511.69696925,3709.09090872,4198.48484806,8.2424242416,3873.93939355,239.030303006,3875.99999961,313.212121181,4265.96969654,160.727272711,4418.45454501,2785.93939366,4178.39393898,3119.75757545,4359.72727229,2637.57575731,4973.78787829,2987.87878758,4186.63636322,45.3333333288,4411.2424238,3346.42424209,4293.27272684,342.060606026,4816.15151467,655.272727207,4512.21212076,3453.57575723,42.0,42.0,?
2017-07-31 18:11:52.284222,4515.30302985,3709.09090872,4197.96969655,8.2424242416,3877.03030264,239.030303006,3886.81818143,313.212121181,4268.0303026,160.727272711,4417.9393935,2785.93939366,4173.75757534,3119.75757545,4355.60606017,2637.57575731,4979.96969647,2987.87878758,4186.63636322,45.3333333288,4410.72727229,3346.42424209,4292.75757533,342.060606026,4821.30302982,655.272727207,4517.36363591,3453.57575723,42.0,42.0,?
2017-07-31 18:11:52.292076,4510.1515147,3709.09090872,4191.78787837,8.2424242416,3875.99999961,239.030303006,3897.63636325,313.212121181,4273.69696927,160.727272711,4415.87878744,2785.93939366,4172.21212079,3119.75757545,4356.6363632,2637.57575731,4986.15151465,2987.87878758,4185.60606019,45.3333333288,4407.6363632,3346.42424209,4291.7272723,342.060606026,4808.93939346,655.272727207,4514.78787834,3453.57575723,42.0,42.0,?
2017-07-31 18:11:52.301879,4512.72727228,3709.09090872,4197.45454503,8.2424242416,3870.84848446,239.030303006,3888.36363597,313.212121181,4278.33333291,160.727272711,4418.45454501,2785.93939366,4177.36363595,3119.75757545,4354.57575714,2637.57575731,4978.42424193,2987.87878758,4180.96969655,45.3333333288,4408.66666623,3346.42424209,4293.78787836,342.060606026,4817.69696922,655.272727207,4511.18181773,3453.57575723,42.0,42.0,?
2017-07-31 18:11:52.308447,4512.72727228,3709.09090872,4197.45454503,8.2424242416,3870.84848446,239.030303006,3888.36363597,313.212121181,4278.33333291,160.727272711,4418.45454501,2785.93939366,4177.36363595,3119.75757545,4354.57575714,2637.57575731,4978.42424193,2987.87878758,4180.96969655,45.3333333288,4408.66666623,3346.42424209,4293.78787836,342.060606026,4817.69696922,655.272727207,4511.18181773,3453.57575723,42.0,42.0,?
2017-07-31 18:11:52.317823,4508.60606016,3709.09090872,4191.27272685,8.2424242416,3870.33333295,239.030303006,3896.60606022,313.212121181,4280.39393897,160.727272711,4420.51515107,2785.93939366,4183.03030261,3119.75757545,4360.75757532,2637.57575731,4980.9999995,2987.87878758,4185.60606019,45.3333333288,4408.15151471,3346.42424209,4291.21212078,342.060606026,4811.51515103,655.272727207,4509.63636319,3453.57575723,42.0,42.0,?
2017-07-31 18:11:52.324650,4504.99999955,3709.09090872,4197.96969655,8.2424242416,3864.15151477,239.030303006,3897.63636325,313.212121181,4286.06060563,160.727272711,4421.5454541,2785.93939366,4179.42424201,3119.75757545,4360.24242381,2637.57575731,4974.30302981,2987.87878758,4183.54545413,45.3333333288,4406.09090865,3346.42424209,4293.27272684,342.060606026,4819.75757528,655.272727207,4507.06060561,3453.57575723,42.0,42.0,?
2017-07-31 18:11:52.331453,4506.03030258,3709.09090872,4197.45454503,8.2424242416,3862.60606022,239.030303006,3895.57575719,313.212121181,4287.60606018,160.727272711,4422.57575713,2785.93939366,4177.87878746,3119.75757545,4359.21212078,2637.57575731,4972.75757526,2987.87878758,4181.48484807,45.3333333288,4403.51515107,3346.42424209,4292.75757533,342.060606026,4815.63636315,655.272727207,4504.48484803,3453.57575723,42.0,42.0,?
2017-07-31 18:11:52.340245,4513.24242379,3709.09090872,4194.36363594,8.2424242416,3873.93939355,239.030303006,3899.18181779,313.212121181,4282.96969654,160.727272711,4425.15151471,2785.93939366,4188.18181776,3119.75757545,4366.9393935,2637.57575731,4983.57575708,2987.87878758,4191.27272685,45.3333333288,4412.27272683,3346.42424209,4293.78787836,342.060606026,4819.24242376,655.272727207,4513.75757531,3453.57575723,42.0,42.0,?
2017-07-31 18:11:52.347754,4518.39393894,3709.09090872,4197.45454503,8.2424242416,3883.72727234,239.030303006,3897.63636325,313.212121181,4279.87878745,160.727272711,4427.72727228,2785.93939366,4192.8181814,3119.75757545,4370.03030259,2637.57575731,4986.66666617,2987.87878758,4197.45454503,45.3333333288,4417.9393935,3346.42424209,4293.78787836,342.060606026,4826.45454497,655.272727207,4521.99999955,3453.57575723,42.0,42.0,?
2017-07-31 18:11:52.355306,4511.69696925,3709.09090872,4196.93939352,8.2424242416,3874.96969658,239.030303006,3891.96969658,313.212121181,4281.93939351,160.727272711,4424.63636319,2785.93939366,4184.06060564,3119.75757545,4362.81818138,2637.57575731,4980.48484799,2987.87878758,4192.30302988,45.3333333288,4413.30302986,3346.42424209,4291.7272723,342.060606026,4821.30302982,655.272727207,4516.8484844,3453.57575723,42.0,42.0,?
2017-07-31 18:11:52.363926,4507.57575713,3709.09090872,4192.8181814,8.2424242416,3869.30302992,239.030303006,3896.0909087,313.212121181,4281.424242,160.727272711,4421.03030259,2785.93939366,4179.93939352,3119.75757545,4359.21212078,2637.57575731,4980.48484799,2987.87878758,4190.24242382,45.3333333288,4414.84848441,3346.42424209,4292.75757533,342.060606026,4820.78787831,655.272727207,4512.72727228,3453.57575723,42.0,42.0,?
2017-07-31 18:11:52.371789,4515.81818137,3709.09090872,4195.39393897,8.2424242416,3880.12121173,239.030303006,3899.18181779,313.212121181,4275.75757533,160.727272711,4417.42424198,2785.93939366,4186.63636322,3119.75757545,4363.3333329,2637.57575731,4982.54545405,2987.87878758,4191.78787837,45.3333333288,4417.42424198,3346.42424209,4292.24242381,342.060606026,4819.75757528,655.272727207,4516.33333288,3453.57575723,42.0,42.0,?
2017-07-31 18:11:52.378401,4514.78787834,3709.09090872,4201.06060564,8.2424242416,3881.15151476,239.030303006,3889.393939,313.212121181,4269.06060563,160.727272711,4412.27272683,2785.93939366,4186.63636322,3119.75757545,4359.72727229,2637.57575731,4978.93939344,2987.87878758,4185.60606019,45.3333333288,4413.81818138,3346.42424209,4292.75757533,342.060606026,4822.84848437,655.272727207,4518.39393894,3453.57575723,42.0,42.0,?
2017-07-31 18:11:52.386187,4505.51515106,3709.09090872,4194.87878746,8.2424242416,3874.96969658,239.030303006,3884.75757537,313.212121181,4270.60606018,160.727272711,4410.21212077,2785.93939366,4179.93939352,3119.75757545,4355.60606017,2637.57575731,4979.45454496,2987.87878758,4183.54545413,45.3333333288,4406.60606017,3346.42424209,4291.21212078,342.060606026,4811.51515103,655.272727207,4513.24242379,3453.57575723,42.0,42.0,?
2017-07-31 18:11:52.393775,4502.42424197,3709.09090872,4194.87878746,8.2424242416,3871.36363598,239.030303006,3885.7878784,313.212121181,4275.75757533,160.727272711,4411.2424238,2785.93939366,4178.39393898,3119.75757545,4360.24242381,2637.57575731,4980.48484799,2987.87878758,4183.54545413,45.3333333288,4402.48484804,3346.42424209,4291.7272723,342.060606026,4804.81818134,655.272727207,4506.54545409,3453.57575723,42.0,42.0,?
2017-07-31 18:11:52.401878,4508.60606016,3709.09090872,4201.06060564,8.2424242416,3872.39393901,239.030303006,3888.87878749,313.212121181,4275.24242381,160.727272711,4412.78787835,2785.93939366,4180.45454504,3119.75757545,4361.27272684,2637.57575731,4979.45454496,2987.87878758,4183.03030261,45.3333333288,4409.69696926,3346.42424209,4296.87878745,342.060606026,4821.81818134,655.272727207,4509.12121167,3453.57575723,42.0,42.0,?
2017-07-31 18:11:52.411814,4518.39393894,3709.09090872,4195.90909049,8.2424242416,3877.03030264,239.030303006,3892.4848481,313.212121181,4274.21212078,160.727272711,4415.36363592,2785.93939366,4178.90909049,3119.75757545,4358.69696926,2637.57575731,4980.9999995,2987.87878758,4190.75757534,45.3333333288,4419.99999956,3346.42424209,4294.30302987,342.060606026,4821.81818134,655.272727207,4516.8484844,3453.57575723,42.0,42.0,?
2017-07-31 18:11:52.417712,4520.96969652,3709.09090872,4197.96969655,8.2424242416,3879.60606022,239.030303006,3890.42424204,313.212121181,4272.66666624,160.727272711,4413.30302986,2785.93939366,4173.75757534,3119.75757545,4356.12121169,2637.57575731,4980.48484799,2987.87878758,4191.78787837,45.3333333288,4423.60606016,3346.42424209,4295.84848442,342.060606026,4826.45454497,655.272727207,4524.06060561,3453.57575723,42.0,42.0,?
2017-07-31 18:11:52.424952,4514.27272682,3709.09090872,4191.78787837,8.2424242416,3876.51515113,239.030303006,3897.63636325,313.212121181,4275.75757533,160.727272711,4413.30302986,2785.93939366,4181.48484807,3119.75757545,4361.27272684,2637.57575731,4987.18181768,2987.87878758,4183.03030261,45.3333333288,4415.87878744,3346.42424209,4295.3333329,342.060606026,4816.15151467,655.272727207,4518.39393894,3453.57575723,42.0,42.0,?
2017-07-31 18:11:52.434771,4514.27272682,3709.09090872,4191.78787837,8.2424242416,3876.51515113,239.030303006,3897.63636325,313.212121181,4275.75757533,160.727272711,4413.30302986,2785.93939366,4181.48484807,3119.75757545,4361.27272684,2637.57575731,4987.18181768,2987.87878758,4183.03030261,45.3333333288,4415.87878744,3346.42424209,4295.3333329,342.060606026,4816.15151467,655.272727207,4518.39393894,3453.57575723,42.0,42.0,?
2017-07-31 18:11:52.443170,4513.24242379,3709.09090872,4197.45454503,8.2424242416,3873.93939355,239.030303006,3892.4848481,313.212121181,4272.15151472,160.727272711,4420.51515107,2785.93939366,4183.03030261,3119.75757545,4361.27272684,2637.57575731,4985.12121162,2987.87878758,4183.03030261,45.3333333288,4417.9393935,3346.42424209,4292.75757533,342.060606026,4825.42424194,655.272727207,4517.36363591,3453.57575723,42.0,42.0,?
2017-07-31 18:11:52.449436,4515.81818137,3709.09090872,4193.84848443,8.2424242416,3879.60606022,239.030303006,3884.75757537,313.212121181,4275.24242381,160.727272711,4419.48484804,2785.93939366,4184.57575716,3119.75757545,4363.3333329,2637.57575731,4987.18181768,2987.87878758,4186.1212117,45.3333333288,4418.45454501,3346.42424209,4291.7272723,342.060606026,4823.36363588,655.272727207,4527.1515147,3453.57575723,42.0,42.0,?
2017-07-31 18:11:52.457190,4519.42424197,3709.09090872,4192.30302988,8.2424242416,3884.75757537,239.030303006,3892.4848481,313.212121181,4282.45454503,160.727272711,4416.90909047,2785.93939366,4184.06060564,3119.75757545,4365.39393896,2637.57575731,4985.12121162,2987.87878758,4187.15151473,45.3333333288,4418.96969653,3346.42424209,4297.90909048,342.060606026,4820.78787831,655.272727207,4531.27272682,3453.57575723,42.0,42.0,?
2017-07-31 18:11:52.467013,4518.90909046,3709.09090872,4195.39393897,8.2424242416,3884.24242385,239.030303006,3909.48484809,313.212121181,4283.48484806,160.727272711,4420.51515107,2785.93939366,4186.63636322,3119.75757545,4368.99999956,2637.57575731,4986.15151465,2987.87878758,4186.1212117,45.3333333288,4421.03030259,3346.42424209,4297.90909048,342.060606026,4822.84848437,655.272727207,4527.66666621,3453.57575723,42.0,42.0,?
2017-07-31 18:11:52.472912,4516.8484844,3709.09090872,4194.36363594,8.2424242416,3883.21212082,239.030303006,3909.48484809,313.212121181,4280.39393897,160.727272711,4422.57575713,2785.93939366,4195.90909049,3119.75757545,4377.2424238,2637.57575731,4999.54545405,2987.87878758,4183.54545413,45.3333333288,4417.9393935,3346.42424209,4291.7272723,342.060606026,4815.63636315,655.272727207,4528.18181773,3453.57575723,42.0,42.0,?
2017-07-31 18:11:52.481165,4516.33333288,3709.09090872,4194.87878746,8.2424242416,3880.63636325,239.030303006,3893.51515113,313.212121181,4276.78787836,160.727272711,4418.96969653,2785.93939366,4194.87878746,3119.75757545,4375.69696926,2637.57575731,5002.12121162,2987.87878758,4178.90909049,45.3333333288,4414.33333289,3346.42424209,4292.75757533,342.060606026,4821.30302982,655.272727207,4533.8484844,3453.57575723,42.0,42.0,?
2017-07-31 18:11:52.488875,4515.30302985,3709.09090872,4191.27272685,8.2424242416,3879.0909087,239.030303006,3889.90909052,313.212121181,4277.81818139,160.727272711,4418.96969653,2785.93939366,4186.1212117,3119.75757545,4365.90909047,2637.57575731,4989.75757526,2987.87878758,4178.39393898,45.3333333288,4411.2424238,3346.42424209,4293.27272684,342.060606026,4818.21212073,655.272727207,4533.33333288,3453.57575723,42.0,42.0,?
2017-07-31 18:11:52.496296,4515.81818137,3709.09090872,4193.33333291,8.2424242416,3878.06060567,239.030303006,3897.63636325,313.212121181,4286.57575715,160.727272711,4423.60606016,2785.93939366,4186.1212117,3119.75757545,4365.39393896,2637.57575731,4985.63636314,2987.87878758,4176.33333292,45.3333333288,4412.78787835,3346.42424209,4294.81818139,342.060606026,4816.15151467,655.272727207,4531.27272682,3453.57575723,42.0,42.0,?
2017-07-31 18:11:52.502635,4520.96969652,3709.09090872,4197.45454503,8.2424242416,3878.06060567,239.030303006,3897.63636325,313.212121181,4293.27272684,160.727272711,4425.15151471,2785.93939366,4190.75757534,3119.75757545,4368.99999956,2637.57575731,4986.66666617,2987.87878758,4172.72727231,45.3333333288,4415.36363592,3346.42424209,4294.81818139,342.060606026,4823.8787874,655.272727207,4535.39393894,3453.57575723,42.0,42.0,?
2017-07-31 18:11:52.510654,4524.06060561,3709.09090872,4192.8181814,8.2424242416,3878.57575719,239.030303006,3891.96969658,313.212121181,4283.48484806,160.727272711,4423.09090865,2785.93939366,4188.69696928,3119.75757545,4367.45454502,2637.57575731,4986.15151465,2987.87878758,4176.33333292,45.3333333288,4412.78787835,3346.42424209,4291.7272723,342.060606026,4818.72727225,655.272727207,4536.93939349,3453.57575723,42.0,42.0,?
2017-07-31 18:11:52.519309,4518.90909046,3709.09090872,4195.90909049,8.2424242416,3872.90909052,239.030303006,3889.393939,313.212121181,4270.09090866,160.727272711,4420.51515107,2785.93939366,4183.54545413,3119.75757545,4364.87878744,2637.57575731,4984.60606011,2987.87878758,4172.72727231,45.3333333288,4410.72727229,3346.42424209,4295.84848442,342.060606026,4820.78787831,655.272727207,4534.87878743,3453.57575723,42.0,42.0,?
2017-07-31 18:11:52.527907,4516.8484844,3709.09090872,4198.99999958,8.2424242416,3871.87878749,239.030303006,3895.06060567,313.212121181,4272.66666624,160.727272711,4417.42424198,2785.93939366,4181.99999958,3119.75757545,4364.36363593,2637.57575731,4980.9999995,2987.87878758,4164.99999958,45.3333333288,4406.09090865,3346.42424209,4294.30302987,342.060606026,4816.15151467,655.272727207,4534.36363591,3453.57575723,42.0,42.0,?
2017-07-31 18:11:52.534986,4519.93939349,3709.09090872,4194.36363594,8.2424242416,3877.54545416,239.030303006,3900.72727234,313.212121181,4279.36363594,160.727272711,4413.30302986,2785.93939366,4180.45454504,3119.75757545,4360.75757532,2637.57575731,4979.45454496,2987.87878758,4166.03030261,45.3333333288,4404.03030259,3346.42424209,4290.18181775,342.060606026,4812.03030255,655.272727207,4535.90909046,3453.57575723,42.0,42.0,?
2017-07-31 18:11:52.544546,4518.90909046,3709.09090872,4195.90909049,8.2424242416,3877.03030264,239.030303006,3900.21212082,313.212121181,4277.30302988,160.727272711,4414.33333289,2785.93939366,4176.33333292,3119.75757545,4358.18181775,2637.57575731,4980.48484799,2987.87878758,4165.5151511,45.3333333288,4405.06060562,3346.42424209,4292.75757533,342.060606026,4819.75757528,655.272727207,4535.90909046,3453.57575723,42.0,42.0,?
2017-07-31 18:11:52.550119,4516.8484844,3709.09090872,4194.87878746,8.2424242416,3877.54545416,239.030303006,3896.0909087,313.212121181,4277.81818139,160.727272711,4417.42424198,2785.93939366,4179.93939352,3119.75757545,4361.78787835,2637.57575731,4985.12121162,2987.87878758,4162.42424201,45.3333333288,4407.12121168,3346.42424209,4293.27272684,342.060606026,4814.60606012,655.272727207,4537.454545,3453.57575723,42.0,42.0,?
2017-07-31 18:11:52.559128,4515.81818137,3709.09090872,4196.93939352,8.2424242416,3878.57575719,239.030303006,3892.99999961,313.212121181,4275.24242381,160.727272711,4413.81818138,2785.93939366,4182.5151511,3119.75757545,4360.75757532,2637.57575731,4982.03030253,2987.87878758,4165.5151511,45.3333333288,4408.15151471,3346.42424209,4295.84848442,342.060606026,4820.27272679,655.272727207,4541.06060561,3453.57575723,42.0,42.0,?
2017-07-31 18:11:52.566500,4510.1515147,3709.09090872,4195.90909049,8.2424242416,3875.4848481,239.030303006,3899.18181779,313.212121181,4275.75757533,160.727272711,4414.33333289,2785.93939366,4180.45454504,3119.75757545,4361.78787835,2637.57575731,4980.9999995,2987.87878758,4167.57575716,45.3333333288,4399.90909047,3346.42424209,4295.3333329,342.060606026,4819.24242376,655.272727207,4537.454545,3453.57575723,42.0,42.0,?
2017-07-31 18:11:52.576226,4508.60606016,3709.09090872,4192.30302988,8.2424242416,3873.42424204,239.030303006,3906.393939,313.212121181,4284.51515109,160.727272711,4421.5454541,2785.93939366,4182.5151511,3119.75757545,4364.87878744,2637.57575731,4987.6969692,2987.87878758,4161.90909049,45.3333333288,4398.87878744,3346.42424209,4290.18181775,342.060606026,4810.484848,655.272727207,4532.81818136,3453.57575723,42.0,42.0,?
2017-07-31 18:11:52.582459,4511.18181773,3709.09090872,4198.48484806,8.2424242416,3873.93939355,239.030303006,3900.21212082,313.212121181,4285.54545412,160.727272711,4424.12121168,2785.93939366,4180.96969655,3119.75757545,4356.6363632,2637.57575731,4976.36363587,2987.87878758,4152.12121171,45.3333333288,4404.03030259,3346.42424209,4291.7272723,342.060606026,4819.75757528,655.272727207,4533.33333288,3453.57575723,42.0,42.0,?
2017-07-31 18:11:52.589113,4513.75757531,3709.09090872,4197.45454503,8.2424242416,3875.99999961,239.030303006,3900.72727234,313.212121181,4289.66666624,160.727272711,4427.72727228,2785.93939366,4179.93939352,3119.75757545,4355.09090866,2637.57575731,4967.09090859,2987.87878758,4153.15151474,45.3333333288,4402.99999956,3346.42424209,4292.75757533,342.060606026,4819.75757528,655.272727207,4537.454545,3453.57575723,42.0,42.0,?
2017-07-31 18:11:52.602001,4515.81818137,3709.09090872,4195.39393897,8.2424242416,3877.03030264,239.030303006,3906.393939,313.212121181,4291.21212078,160.727272711,4428.2424238,2785.93939366,4185.60606019,3119.75757545,4361.27272684,2637.57575731,4978.93939344,2987.87878758,4161.90909049,45.3333333288,4405.57575714,3346.42424209,4293.78787836,342.060606026,4823.8787874,655.272727207,4544.66666621,3453.57575723,42.0,42.0,?
2017-07-31 18:11:52.606656,4516.33333288,3709.09090872,4197.45454503,8.2424242416,3874.96969658,239.030303006,3901.24242385,313.212121181,4279.87878745,160.727272711,4421.5454541,2785.93939366,4186.63636322,3119.75757545,4360.24242381,2637.57575731,4984.60606011,2987.87878758,4163.45454504,45.3333333288,4407.12121168,3346.42424209,4294.81818139,342.060606026,4822.33333285,655.272727207,4544.1515147,3453.57575723,42.0,42.0,?
2017-07-31 18:11:52.613538,4515.81818137,3709.09090872,4194.87878746,8.2424242416,3877.03030264,239.030303006,3898.15151476,313.212121181,4275.75757533,160.727272711,4417.9393935,2785.93939366,4187.15151473,3119.75757545,4361.27272684,2637.57575731,4982.03030253,2987.87878758,4162.42424201,45.3333333288,4403.51515107,3346.42424209,4293.27272684,342.060606026,4813.06060558,655.272727207,4540.54545409,3453.57575723,42.0,42.0,?
2017-07-31 18:11:52.620657,4517.36363591,3709.09090872,4194.87878746,8.2424242416,3878.06060567,239.030303006,3899.69696931,313.212121181,4280.39393897,160.727272711,4419.48484804,2785.93939366,4189.72727231,3119.75757545,4362.30302987,2637.57575731,4985.12121162,2987.87878758,4162.93939352,45.3333333288,4406.60606017,3346.42424209,4292.24242381,342.060606026,4823.36363588,655.272727207,4546.72727227,3453.57575723,42.0,42.0,?
2017-07-31 18:11:52.630092,4518.90909046,3709.09090872,4192.8181814,8.2424242416,3878.57575719,239.030303006,3897.63636325,313.212121181,4279.36363594,160.727272711,4416.90909047,2785.93939366,4188.69696928,3119.75757545,4361.78787835,2637.57575731,4984.60606011,2987.87878758,4161.90909049,45.3333333288,4410.21212077,3346.42424209,4291.21212078,342.060606026,4823.36363588,655.272727207,4551.87878742,3453.57575723,42.0,42.0,?
2017-07-31 18:11:52.638266,4518.39393894,3721.45454508,4193.84848443,8.2424242416,3877.54545416,239.030303006,3890.42424204,313.212121181,4273.18181775,160.727272711,4411.2424238,2785.93939366,4184.06060564,3119.75757545,4362.81818138,2637.57575731,4979.45454496,2987.87878758,4157.27272686,45.3333333288,4410.72727229,3346.42424209,4293.78787836,342.060606026,4822.84848437,655.272727207,4550.33333288,3453.57575723,42.0,42.0,?
2017-07-31 18:11:52.644570,4516.8484844,3721.45454508,4196.424242,8.2424242416,3873.42424204,239.030303006,3889.90909052,313.212121181,4273.18181775,160.727272711,4410.72727229,2785.93939366,4180.96969655,3119.75757545,4363.84848441,2637.57575731,4981.51515102,2987.87878758,4156.24242383,45.3333333288,4408.15151471,3346.42424209,4293.78787836,342.060606026,4823.8787874,655.272727207,4546.21212076,3453.57575723,42.0,42.0,?
2017-07-31 18:11:52.652069,4515.30302985,3721.45454508,4192.8181814,8.2424242416,3872.39393901,239.030303006,3899.69696931,313.212121181,4280.39393897,160.727272711,4415.87878744,2785.93939366,4183.03030261,3119.75757545,4364.87878744,2637.57575731,4986.15151465,2987.87878758,4158.8181814,45.3333333288,4404.03030259,3346.42424209,4291.21212078,342.060606026,4814.09090861,655.272727207,4545.18181773,3445.33333299,42.0,42.0,?
2017-07-31 18:11:52.660703,4515.30302985,3721.45454508,4196.93939352,8.2424242416,3872.39393901,230.787878765,3903.30302991,313.212121181,4282.96969654,160.727272711,4417.9393935,2785.93939366,4186.1212117,3119.75757545,4365.90909047,2637.57575731,4981.51515102,2987.87878758,4155.2121208,45.3333333288,4403.51515107,3346.42424209,4294.30302987,342.060606026,4817.69696922,655.272727207,4548.78787833,3445.33333299,42.0,42.0,?
2017-07-31 18:11:52.668439,4517.36363591,3721.45454508,4196.93939352,8.2424242416,3879.0909087,230.787878765,3904.84848446,325.575757543,4285.0303026,160.727272711,4417.42424198,2785.93939366,4187.66666625,3119.75757545,4367.96969653,2637.57575731,4979.45454496,2987.87878758,4156.75757534,45.3333333288,4407.12121168,3346.42424209,4293.27272684,342.060606026,4813.06060558,655.272727207,4555.99999954,3445.33333299,42.0,42.0,?
2017-07-31 18:11:52.676096,4521.48484803,3721.45454508,4193.84848443,8.2424242416,3886.81818143,230.787878765,3906.393939,325.575757543,4288.63636321,156.60606059,4418.96969653,2785.93939366,4185.09090867,3119.75757545,4370.54545411,2637.57575731,4983.06060556,2987.87878758,4165.5151511,45.3333333288,4415.36363592,3346.42424209,4292.24242381,342.060606026,4814.60606012,655.272727207,4558.57575712,3445.33333299,42.0,42.0,?
2017-07-31 18:11:52.682795,4520.454545,3721.45454508,4199.5151511,8.2424242416,3887.33333294,230.787878765,3901.75757537,325.575757543,4285.54545412,156.60606059,4423.09090865,2794.1818179,4181.48484807,3119.75757545,4366.42424199,2637.57575731,4987.18181768,2987.87878758,4168.09090867,45.3333333288,4415.36363592,3346.42424209,4294.81818139,342.060606026,4824.90909043,655.272727207,4555.99999954,3445.33333299,42.0,42.0,?
2017-07-31 18:11:52.691261,4519.42424197,3721.45454508,4197.45454503,8.2424242416,3887.84848446,230.787878765,3905.36363597,325.575757543,4286.57575715,156.60606059,4426.18181774,2794.1818179,4186.63636322,3115.63636332,4365.90909047,2637.57575731,4993.87878738,2987.87878758,4168.60606019,45.3333333288,4408.15151471,3346.42424209,4293.27272684,342.060606026,4817.69696922,655.272727207,4557.03030257,3445.33333299,42.0,42.0,?
2017-07-31 18:11:52.704180,4524.06060561,3721.45454508,4196.93939352,8.2424242416,3887.84848446,230.787878765,3912.57575718,325.575757543,4288.12121169,156.60606059,4422.57575713,2794.1818179,4190.24242382,3115.63636332,4369.51515108,2641.69696943,4995.42424192,2987.87878758,4166.54545413,45.3333333288,4410.72727229,3346.42424209,4295.3333329,342.060606026,4821.30302982,655.272727207,4560.63636318,3445.33333299,42.0,42.0,?
