Timestamp,F3 Value,F3 Quality,FC5 Value,FC5 Quality,F7 Value,F7 Quality,T7 Value,T7 Quality,P7 Value,P7 Quality,O1 Value,O1 Quality,O2 Value,O2 Quality,P8 Value,P8 Quality,T8 Value,T8 Quality,F8 Value,F8 Quality,AF4 Value,AF4 Quality,FC6 Value,FC6 Quality,F4 Value,F4 Quality,AF3 Value,AF3 Quality,X Value,Y Value,Z Value
2017-08-01 19:36:44.971459,4555.99999954,0,4090.81818141,0,4338.09090866,0,3730.21212084,0,4465.8484844,0,4588.454545,0,4443.69696925,0,4558.0606056,0,5329.24242371,0,3702.90909054,0,4528.69696924,0,4232.48484806,0,4852.72727224,0,4509.12121167,0,42.0,42.0,?
2017-08-01 19:36:44.974175,4593.09090863,0,4108.84848444,0,3800.27272689,0,3722.48484811,0,4177.87878746,0,4358.18181775,0,4194.87878746,0,4175.30302989,0,4923.81818133,0,3991.39393899,0,4420.51515107,0,4205.18181776,0,4948.03030254,3214.54545422,4435.96969653,0,42.0,42.0,?
2017-08-01 19:36:44.977180,4599.78787833,0,4108.84848444,0,3812.12121174,0,3590.60606025,0,4178.39393898,0,4358.69696926,0,4211.36363594,0,4189.72727231,0,4928.45454496,0,3997.57575718,4191.27272685,4426.18181774,0,4207.75757534,0,4954.21212072,3214.54545422,4435.45454501,0,42.0,42.0,?
2017-08-01 19:36:44.980307,4594.63636318,0,4106.78787838,0,3811.09090871,0,3552.99999964,0,4182.5151511,0,4362.81818138,0,4233.51515109,0,4207.24242382,0,4956.78787829,0,4001.6969693,4191.27272685,4423.60606016,2295.51515129,4205.69696928,0,4951.63636314,3214.54545422,4435.45454501,0,42.0,42.0,?
2017-08-01 19:36:44.983282,4593.09090863,0,4110.9090905,0,3804.39393901,0,3645.21212085,0,4188.18181776,0,4364.36363593,0,4222.18181776,0,4189.21212079,0,4935.66666617,0,4002.72727233,4191.27272685,4418.96969653,2295.51515129,4209.8181814,1351.75757562,4950.0909086,3214.54545422,4438.03030259,0,42.0,42.0,?
2017-08-01 19:36:44.987064,4587.93939348,0,4106.78787838,0,3807.99999962,0,3710.12121175,0,4186.63636322,0,4357.15151472,0,4202.09090867,0,4171.69696928,0,4902.18181769,0,3999.12121172,4191.27272685,4411.75757532,2295.51515129,4208.27272685,1351.75757562,4943.3939389,3214.54545422,4431.33333289,0,42.0,42.0,?
2017-08-01 19:36:44.990198,4591.54545409,0,4106.78787838,0,3812.63636326,0,3632.33333297,0,4176.33333292,0,4354.06060563,0,4213.424242,0,4191.27272685,0,4948.54545405,0,3994.9999996,4191.27272685,4407.6363632,2295.51515129,4198.48484806,1351.75757562,4944.93939344,3214.54545422,4428.75757531,0,42.0,42.0,?
2017-08-01 19:36:44.993624,4596.18181772,0,4110.9090905,0,3816.75757538,0,3575.15151479,0,4170.15151473,0,4360.24242381,0,4224.75757534,0,4202.09090867,0,4980.48484799,0,4010.45454505,4191.27272685,4417.42424198,2295.51515129,4200.54545413,1351.75757562,4952.66666617,3214.54545422,4436.99999956,0,42.0,42.0,?
2017-08-01 19:36:44.996813,4586.90909045,0,4106.78787838,0,3820.8787875,0,3630.78787842,0,4170.15151473,0,4358.69696926,0,4207.75757534,0,4178.90909049,0,4920.72727224,0,4002.72727233,4191.27272685,4422.57575713,2295.51515129,4206.72727231,1351.75757562,4949.57575708,3214.54545422,4439.57575713,0,42.0,42.0,?
2017-08-01 19:36:45.005979,4588.96969651,0,4105.75757535,0,3817.78787841,0,3633.87878752,0,4165.5151511,0,4348.39393896,0,4191.27272685,0,4160.36363595,0,4900.12121163,0,3969.75757536,4191.27272685,4416.39393895,2295.51515129,4201.06060564,1351.75757562,4948.54545405,3214.54545422,4438.03030259,0,42.0,42.0,?
2017-08-01 19:36:45.011814,4592.0606056,0,4107.81818141,0,3819.84848447,0,3581.33333298,0,4159.33333292,0,4351.99999956,0,4201.57575716,0,4174.78787837,0,4960.90909041,0,3989.84848445,4191.27272685,4413.30302986,2295.51515129,4197.96969655,1351.75757562,4944.93939344,3214.54545422,4435.45454501,0,42.0,42.0,?
2017-08-01 19:36:45.016267,4591.03030257,0,4110.9090905,0,3817.78787841,0,3626.15151479,0,4170.66666625,0,4357.66666623,0,4208.78787837,0,4192.8181814,0,4978.42424193,0,4024.87878748,4191.27272685,4413.81818138,2295.51515129,4200.54545413,1351.75757562,4942.87878738,3214.54545422,4435.45454501,0,42.0,42.0,?
2017-08-01 19:36:45.022221,4588.96969651,0,4109.87878747,0,3807.99999962,0,3710.12121175,0,4181.48484807,0,4348.90909047,0,4189.21212079,0,4181.99999958,0,4916.0909086,0,4007.87878748,4191.27272685,4407.12121168,2295.51515129,4198.99999958,1351.75757562,4942.36363587,3214.54545422,4436.48484804,0,42.0,42.0,?
2017-08-01 19:36:45.029796,4583.30302984,0,4107.30302989,0,3815.21212083,0,3659.63636327,0,4171.69696928,0,4346.84848441,0,4176.84848443,0,4171.18181776,0,4885.18181769,0,3998.60606021,4191.27272685,4406.09090865,2295.51515129,4200.03030261,1351.75757562,4941.33333284,3214.54545422,4434.9393935,0,42.0,42.0,?
2017-08-01 19:36:45.034560,4589.99999954,0,4112.45454504,0,3822.42424204,0,3574.63636328,0,4160.36363595,0,4357.15151472,0,4190.75757534,0,4184.06060564,0,4943.3939389,0,4021.78787839,4191.27272685,4413.30302986,2295.51515129,4202.60606019,1351.75757562,4950.0909086,3214.54545422,4435.45454501,0,42.0,42.0,?
2017-08-01 19:36:45.037066,4591.03030257,0,4110.9090905,0,3810.57575719,0,3602.96969661,0,4164.48484807,0,4355.60606017,0,4201.06060564,0,4189.21212079,0,4984.60606011,0,4020.75757536,4191.27272685,4409.69696926,2295.51515129,4201.06060564,1351.75757562,4949.06060557,3214.54545422,4428.2424238,0,42.0,42.0,?
2017-08-01 19:36:45.040464,4586.39393894,0,4108.84848444,0,3809.03030265,0,3698.2727269,0,4170.66666625,0,4355.60606017,0,4203.1212117,0,4177.87878746,0,4946.99999951,0,4000.15151475,4191.27272685,4404.54545411,2295.51515129,4198.99999958,1351.75757562,4942.87878738,3214.54545422,4426.18181774,0,42.0,42.0,?
2017-08-01 19:36:45.047532,4589.99999954,0,4108.33333292,0,3821.90909053,0,3696.72727236,0,4168.09090867,0,4364.87878744,0,4203.1212117,0,4176.84848443,0,4897.54545406,0,4015.09090869,4191.27272685,4410.72727229,2295.51515129,4202.09090867,1351.75757562,4944.93939344,3214.54545422,4434.9393935,0,42.0,42.0,?
2017-08-01 19:36:45.054086,4588.454545,0,4102.15151474,0,3826.54545416,0,3561.24242389,0,4172.21212079,0,4364.36363593,0,4200.03030261,0,4185.09090867,0,4905.7878783,0,4045.48484808,4191.27272685,4416.39393895,2295.51515129,4201.57575716,1351.75757562,4943.3939389,3214.54545422,4434.9393935,0,42.0,42.0,?
2017-08-01 19:36:45.059571,4593.09090863,0,4107.81818141,0,3825.51515113,0,3557.63636328,0,4180.45454504,0,4361.27272684,0,4206.72727231,0,4191.78787837,0,4945.45454496,0,4025.90909051,4191.27272685,4418.45454501,2295.51515129,4194.87878746,1351.75757562,4950.0909086,3214.54545422,4433.90909047,0,42.0,42.0,?
2017-08-01 19:36:45.064772,4593.09090863,0,4110.39393898,0,3829.12121174,0,3735.87878751,0,4175.30302989,0,4361.27272684,0,4206.72727231,0,4185.09090867,0,4938.24242375,0,3999.12121172,4191.27272685,4412.78787835,2295.51515129,4193.33333291,1351.75757562,4951.63636314,3214.54545422,4432.36363592,0,42.0,42.0,?
2017-08-01 19:36:45.069144,4591.03030257,0,4107.30302989,0,3827.06060568,0,3736.39393902,0,4164.48484807,0,4355.09090866,0,4191.27272685,0,4168.09090867,0,4909.3939389,0,4031.57575717,4191.27272685,4408.15151471,2295.51515129,4199.5151511,1351.75757562,4948.03030254,3214.54545422,4430.81818138,0,42.0,42.0,?
2017-08-01 19:36:45.074619,4595.66666621,0,4110.9090905,0,3826.03030265,0,3563.30302995,0,4163.96969655,0,4356.12121169,0,4194.87878746,0,4179.93939352,0,4932.57575708,0,4062.48484808,4191.27272685,4415.36363592,2295.51515129,4202.60606019,1351.75757562,4950.0909086,3214.54545422,4433.90909047,0,42.0,42.0,?
2017-08-01 19:36:45.083898,4587.42424197,0,4109.36363595,0,3828.60606022,0,3589.57575722,0,4171.69696928,0,4361.78787835,0,4214.45454503,0,4204.15151473,0,4951.63636314,0,4034.66666626,4191.27272685,4412.27272683,2295.51515129,4195.39393897,1351.75757562,4942.36363587,3214.54545422,4426.69696925,0,42.0,42.0,?
2017-08-01 19:36:45.091074,4585.87878742,0,4111.42424201,0,3826.03030265,0,3712.18181781,0,4170.66666625,0,4355.60606017,0,4206.72727231,0,4195.90909049,0,4927.93939345,0,4002.72727233,4191.27272685,4401.96969653,2295.51515129,4191.78787837,1351.75757562,4942.36363587,3214.54545422,4423.09090865,0,42.0,42.0,?
2017-08-01 19:36:45.098308,4591.03030257,0,4110.39393898,0,3832.21212083,0,3655.51515115,0,4160.36363595,0,4347.36363593,0,4181.48484807,0,4176.84848443,0,4934.63636314,0,4005.3030299,4191.27272685,4402.99999956,2295.51515129,4195.90909049,1351.75757562,4947.51515102,3214.54545422,4432.87878744,0,42.0,42.0,?
2017-08-01 19:36:45.108782,4585.87878742,0,4104.72727232,0,3846.63636325,0,3617.39393903,0,4156.24242383,0,4348.90909047,0,4178.90909049,0,4178.39393898,0,4952.66666617,0,4010.45454505,4191.27272685,4405.06060562,2295.51515129,4197.45454503,1351.75757562,4941.84848435,3214.54545422,4436.99999956,0,42.0,42.0,?
2017-08-01 19:36:45.113080,4588.454545,0,4107.81818141,0,3847.66666628,0,3676.63636327,0,4159.84848443,0,4350.45454502,0,4194.87878746,0,4189.21212079,0,4929.48484799,0,4014.06060566,4191.27272685,4406.09090865,2295.51515129,4199.5151511,1351.75757562,4944.93939344,3214.54545422,4433.90909047,0,42.0,42.0,?
2017-08-01 19:36:45.123064,4592.0606056,0,4107.81818141,0,3847.66666628,0,3667.363636,0,4168.09090867,0,4353.03030259,0,4210.84848443,0,4196.93939352,0,4915.57575708,0,4031.06060566,4191.27272685,4415.36363592,2295.51515129,4202.09090867,1351.75757562,4950.60606011,3214.54545422,4435.45454501,0,42.0,42.0,?
2017-08-01 19:36:45.129493,4595.66666621,0,4108.33333292,0,3853.33333295,0,3632.33333297,0,4169.1212117,0,4351.99999956,0,4208.27272685,0,4193.84848443,0,4920.72727224,0,4040.33333293,4191.27272685,4419.99999956,2295.51515129,4201.06060564,1351.75757562,4950.60606011,3214.54545422,4442.66666622,0,42.0,42.0,?
2017-08-01 19:36:45.137138,4594.63636318,0,4108.33333292,0,3850.24242386,0,3618.42424206,0,4163.96969655,0,4350.45454502,0,4200.03030261,0,4185.09090867,0,4919.6969692,0,4027.45454505,4191.27272685,4410.21212077,2295.51515129,4197.96969655,1351.75757562,4946.99999951,3214.54545422,4439.57575713,0,42.0,42.0,?
2017-08-01 19:36:45.145510,4589.48484803,0,4106.27272686,0,3846.12121174,0,3623.0606057,0,4166.03030261,0,4362.30302987,0,4211.87878746,0,4198.99999958,0,4941.84848435,0,4015.6060602,4191.27272685,4407.6363632,2295.51515129,4196.93939352,1351.75757562,4946.48484799,3214.54545422,4433.90909047,0,42.0,42.0,?
2017-08-01 19:36:45.155438,4592.0606056,0,4111.42424201,0,3849.72727234,0,3682.30302993,0,4168.09090867,0,4373.6363632,0,4217.54545412,0,4213.93939352,0,4966.57575708,0,4024.36363596,4191.27272685,4412.78787835,2295.51515129,4197.96969655,1351.75757562,4951.12121163,3214.54545422,4438.03030259,0,42.0,42.0,?
2017-08-01 19:36:45.163817,4585.87878742,0,4109.87878747,0,3852.30302992,0,3718.87878751,0,4164.48484807,0,4364.87878744,0,4206.21212079,0,4205.69696928,0,4946.99999951,0,4040.33333293,4191.27272685,4402.99999956,2295.51515129,4197.45454503,1351.75757562,4941.84848435,3214.54545422,4433.39393895,0,42.0,42.0,?
2017-08-01 19:36:45.169224,4586.39393894,0,4109.36363595,0,3850.24242386,0,3663.75757539,0,4160.36363595,0,4352.51515108,0,4201.06060564,0,4202.09090867,0,4927.42424193,0,4038.78787838,4191.27272685,4395.78787835,2295.51515129,4194.87878746,1351.75757562,4939.27272678,3214.54545422,4427.72727228,0,42.0,42.0,?
2017-08-01 19:36:45.178444,4594.12121166,0,4110.9090905,0,3844.57575719,0,3598.84848449,0,4161.90909049,0,4354.57575714,0,4206.72727231,0,4213.424242,0,4950.60606011,0,4031.57575717,4191.27272685,4404.54545411,2295.51515129,4193.33333291,1351.75757562,4949.57575708,3214.54545422,4430.81818138,0,42.0,42.0,?
2017-08-01 19:36:45.185189,4587.93939348,0,4107.81818141,0,3840.96969659,0,3644.18181782,0,4167.57575716,0,4357.15151472,0,4210.84848443,0,4214.96969655,0,4972.24242375,0,4044.45454505,4191.27272685,4411.2424238,2295.51515129,4194.87878746,1351.75757562,4949.06060557,3214.54545422,4428.75757531,0,42.0,42.0,?
2017-08-01 19:36:45.194074,4592.57575712,0,4111.93939353,0,3847.66666628,0,3695.18181781,0,4163.96969655,0,4345.81818138,0,4203.63636322,0,4199.5151511,0,4951.63636314,0,4057.84848444,4191.27272685,4417.9393935,2295.51515129,4200.03030261,1351.75757562,4950.60606011,3214.54545422,4432.87878744,0,42.0,42.0,?
2017-08-01 19:36:45.205078,4594.12121166,0,4111.42424201,0,3856.93939355,0,3666.84848448,0,4154.18181777,0,4336.54545411,0,4187.66666625,0,4189.21212079,0,4921.75757527,0,4039.81818141,4191.27272685,4416.39393895,2295.51515129,4198.48484806,1351.75757562,4946.48484799,3214.54545422,4438.5454541,0,42.0,42.0,?
2017-08-01 19:36:45.210692,4587.42424197,0,4108.84848444,0,3847.66666628,0,3625.12121176,0,4155.72727231,0,4340.15151472,0,4178.90909049,0,4191.78787837,0,4928.96969648,0,4017.15151475,4191.27272685,4401.96969653,2295.51515129,4194.36363594,1351.75757562,4939.27272678,3214.54545422,4433.90909047,0,42.0,42.0,?
2017-08-01 19:36:45.216320,4587.42424197,0,4109.87878747,0,3833.24242386,0,3599.87878752,0,4167.06060564,0,4345.81818138,0,4191.78787837,0,4194.36363594,0,4948.54545405,0,4038.27272687,4191.27272685,4399.90909047,2295.51515129,4198.48484806,1351.75757562,4941.33333284,3214.54545422,4430.81818138,0,42.0,42.0,?
2017-08-01 19:36:45.225851,4584.33333287,0,4108.33333292,0,3838.90909053,0,3653.9696966,0,4170.15151473,0,4351.99999956,0,4207.24242382,0,4203.1212117,0,4949.06060557,0,4059.9090905,4191.27272685,4405.06060562,2295.51515129,4198.99999958,1351.75757562,4941.33333284,3214.54545422,4430.30302986,0,42.0,42.0,?
2017-08-01 19:36:45.233775,4585.87878742,0,4110.39393898,0,3841.99999962,0,3750.30302993,0,4164.99999958,0,4358.18181775,0,4208.27272685,0,4211.36363594,0,4940.81818132,0,4022.3030299,4191.27272685,4399.90909047,2295.51515129,4192.30302988,1351.75757562,4942.87878738,3214.54545422,4430.30302986,0,42.0,42.0,?
2017-08-01 19:36:45.240175,4586.39393894,0,4108.84848444,0,3833.75757537,0,3714.75757539,0,4160.87878746,0,4358.69696926,0,4206.72727231,0,4213.93939352,0,4940.30302981,0,4013.03030263,4191.27272685,4397.84848441,2295.51515129,4192.8181814,1351.75757562,4941.84848435,3214.54545422,4428.75757531,0,42.0,42.0,?
2017-08-01 19:36:45.246601,4586.90909045,0,4107.30302989,0,3839.42424204,0,3604.51515115,0,4158.8181814,0,4351.48484805,0,4203.1212117,0,4211.36363594,0,4940.30302981,0,4062.99999959,4191.27272685,4408.66666623,2295.51515129,4196.424242,1351.75757562,4940.30302981,3214.54545422,4431.33333289,0,42.0,42.0,?
2017-08-01 19:36:45.256516,4589.48484803,0,4108.84848444,0,3849.21212083,0,3622.54545418,0,4159.84848443,0,4345.81818138,0,4198.99999958,0,4211.36363594,0,4965.54545405,0,4067.12121171,4191.27272685,4410.21212077,2295.51515129,4192.30302988,1351.75757562,4943.90909041,3214.54545422,4433.90909047,0,42.0,42.0,?
2017-08-01 19:36:45.263258,4582.78787833,0,4107.30302989,0,3844.57575719,0,3693.63636327,0,4164.48484807,0,4348.39393896,0,4192.8181814,0,4212.90909049,0,4990.78787829,0,4038.78787838,4191.27272685,4396.81818138,2295.51515129,4189.72727231,1351.75757562,4938.24242375,3214.54545422,4430.81818138,0,42.0,42.0,?
2017-08-01 19:36:45.271023,4587.42424197,0,4112.45454504,0,3847.66666628,0,3656.54545418,0,4164.99999958,0,4351.99999956,0,4188.18181776,0,4204.15151473,0,4944.42424193,0,4053.72727232,4191.27272685,4399.39393895,2295.51515129,4194.87878746,1351.75757562,4943.3939389,3214.54545422,4436.48484804,0,42.0,42.0,?
2017-08-01 19:36:45.279797,4592.0606056,0,4111.93939353,0,3854.87878749,0,3658.60606024,0,4163.96969655,0,4350.96969653,0,4193.84848443,0,4206.72727231,0,4916.60606011,0,4081.03030262,4191.27272685,4410.72727229,2295.51515129,4194.36363594,1351.75757562,4949.06060557,3214.54545422,4440.09090865,0,42.0,42.0,?
2017-08-01 19:36:45.287871,4585.36363591,0,4106.27272686,0,3847.66666628,0,3704.9696966,0,4164.48484807,0,4351.48484805,0,4200.03030261,0,4220.1212117,0,4971.21212072,0,4074.84848444,4191.27272685,4407.6363632,2295.51515129,4190.24242382,1351.75757562,4943.3939389,3214.54545422,4432.87878744,0,42.0,42.0,?
2017-08-01 19:36:45.294418,4587.93939348,0,4109.36363595,0,3837.87878749,0,3656.03030266,0,4165.5151511,0,4353.03030259,0,4196.424242,0,4224.75757534,0,4997.48484799,0,4054.24242384,4191.27272685,4402.99999956,2295.51515129,4188.69696928,1351.75757562,4944.93939344,3214.54545422,4430.81818138,0,42.0,42.0,?
2017-08-01 19:36:45.304073,4588.96969651,0,4107.81818141,0,3835.30302992,0,3657.57575721,0,4168.09090867,0,4349.9393935,0,4188.18181776,0,4220.1212117,0,4960.90909041,0,4059.9090905,4191.27272685,4403.51515107,2295.51515129,4189.72727231,1351.75757562,4943.90909041,3214.54545422,4433.39393895,0,42.0,42.0,?
2017-08-01 19:36:45.309370,4589.99999954,0,4110.9090905,0,3837.36363598,0,3722.48484811,0,4167.57575716,0,4350.45454502,0,4184.06060564,0,4209.30302988,0,4932.06060557,0,4075.36363596,4191.27272685,4403.51515107,2295.51515129,4193.33333291,1351.75757562,4942.36363587,3214.54545422,4439.57575713,0,42.0,42.0,?
2017-08-01 19:36:45.317294,4587.93939348,3787.39393902,4113.99999959,0,3836.33333295,0,3693.63636327,0,4165.5151511,0,4357.66666623,0,4187.66666625,0,4204.66666625,0,4928.96969648,0,4049.6060602,4191.27272685,4398.87878744,2295.51515129,4188.69696928,1351.75757562,4940.30302981,3214.54545422,4434.9393935,0,42.0,42.0,?
2017-08-01 19:36:45.327256,4579.69696924,3787.39393902,4108.84848444,8.2424242416,3829.12121174,0,3667.87878751,0,4168.60606019,0,4359.21212078,0,4198.99999958,0,4213.93939352,0,4945.96969648,0,4033.63636323,4191.27272685,4392.18181774,2295.51515129,4185.60606019,1351.75757562,4933.60606011,3214.54545422,4425.15151471,0,42.0,42.0,?
2017-08-01 19:36:45.336126,4582.78787833,3787.39393902,4109.87878747,8.2424242416,3822.42424204,0,3724.03030266,0,4168.09090867,0,4347.87878744,0,4194.36363594,0,4216.51515109,0,4965.54545405,0,4065.57575717,4191.27272685,4387.03030259,2295.51515129,4191.78787837,1351.75757562,4935.66666617,3214.54545422,4428.2424238,758.303030227,42.0,42.0,?
2017-08-01 19:36:45.341771,4579.69696924,3787.39393902,4108.84848444,8.2424242416,3828.60606022,3725.5757572,3674.57575721,0,4160.87878746,0,4335.51515108,0,4178.90909049,0,4205.18181776,0,4959.87878738,0,4074.33333293,4191.27272685,4384.96969653,2295.51515129,4190.24242382,1351.75757562,4936.18181769,3214.54545422,4427.72727228,758.303030227,42.0,42.0,?
2017-08-01 19:36:45.348093,4582.78787833,3787.39393902,4109.87878747,8.2424242416,3836.84848446,3725.5757572,3601.93939358,230.787878765,4158.30302989,0,4345.81818138,0,4193.84848443,0,4210.84848443,0,4947.51515102,0,4071.24242384,4191.27272685,4397.84848441,2295.51515129,4189.72727231,1351.75757562,4941.33333284,3214.54545422,4429.78787834,758.303030227,42.0,42.0,?
2017-08-01 19:36:45.357492,4592.57575712,3787.39393902,4110.9090905,8.2424242416,3839.42424204,3725.5757572,3703.42424205,230.787878765,4167.06060564,4174.78787837,4364.87878744,0,4215.48484806,0,4228.36363594,0,4951.12121163,0,4093.39393898,4191.27272685,4411.75757532,2295.51515129,4197.45454503,1351.75757562,4945.96969648,3214.54545422,4440.09090865,758.303030227,42.0,42.0,?
2017-08-01 19:36:45.364404,4586.90909045,3787.39393902,4104.72727232,8.2424242416,3847.66666628,3725.5757572,3759.5757572,230.787878765,4173.24242383,4174.78787837,4361.78787835,3886.30302991,4206.21212079,0,4231.96969655,0,4969.15151465,0,4096.99999959,4191.27272685,4408.15151471,2295.51515129,4195.39393897,1351.75757562,4941.33333284,3214.54545422,4440.09090865,758.303030227,42.0,42.0,?
2017-08-01 19:36:45.374099,4589.48484803,3787.39393902,4108.84848444,8.2424242416,3851.7878784,3725.5757572,3681.78787842,230.787878765,4172.72727231,4174.78787837,4348.39393896,3886.30302991,4193.84848443,3136.24242393,4231.45454503,0,4982.03030253,0,4079.99999959,4191.27272685,4404.54545411,2295.51515129,4189.21212079,1351.75757562,4946.48484799,3214.54545422,4437.51515107,758.303030227,42.0,42.0,?
2017-08-01 19:36:45.380823,4589.99999954,3787.39393902,4108.84848444,8.2424242416,3844.06060568,3725.5757572,3677.15151478,230.787878765,4172.21212079,4174.78787837,4348.90909047,3886.30302991,4204.66666625,3136.24242393,4238.15151473,2546.90909065,4997.48484799,0,4095.96969656,4191.27272685,4404.03030259,2295.51515129,4191.78787837,1351.75757562,4944.42424193,3214.54545422,4432.36363592,758.303030227,42.0,42.0,?
2017-08-01 19:36:45.392604,4585.36363591,3787.39393902,4106.78787838,8.2424242416,3839.93939356,3725.5757572,3721.9696966,230.787878765,4174.27272686,4174.78787837,4356.6363632,3886.30302991,4206.21212079,3136.24242393,4236.60606018,2546.90909065,5000.57575708,3070.30303,4114.5151511,4191.27272685,4402.48484804,2295.51515129,4194.87878746,1351.75757562,4942.36363587,3214.54545422,4425.66666622,758.303030227,42.0,42.0,?
2017-08-01 19:36:45.397271,4587.93939348,3787.39393902,4109.36363595,8.2424242416,3846.63636325,3725.5757572,3707.03030266,230.787878765,4179.42424201,4174.78787837,4362.30302987,3886.30302991,4192.8181814,3136.24242393,4226.8181814,2546.90909065,4969.15151465,3070.30303,4091.33333292,4203.63636322,4404.03030259,2295.51515129,4191.78787837,1351.75757562,4948.03030254,3214.54545422,4429.27272683,758.303030227,42.0,42.0,?
2017-08-01 19:36:45.404117,4584.33333287,3787.39393902,4106.78787838,8.2424242416,3856.93939355,3725.5757572,3706.51515114,230.787878765,4183.03030261,4174.78787837,4366.42424199,3886.30302991,4201.57575716,3136.24242393,4235.57575715,2546.90909065,4964.51515102,3070.30303,4079.48484808,4203.63636322,4398.87878744,2390.30303006,4188.18181776,1351.75757562,4939.27272678,3214.54545422,4432.36363592,758.303030227,42.0,42.0,?
2017-08-01 19:36:45.411910,4581.24242378,3787.39393902,4106.27272686,8.2424242416,3850.75757537,3725.5757572,3743.09090872,230.787878765,4178.90909049,4174.78787837,4361.78787835,3886.30302991,4212.90909049,3136.24242393,4241.75757533,2546.90909065,4987.18181768,3070.30303,4100.09090868,4203.63636322,4385.48484805,2390.30303006,4188.69696928,1364.12121198,4935.66666617,3214.54545422,4425.66666622,758.303030227,42.0,42.0,?
2017-08-01 19:36:45.418790,4578.15151469,3787.39393902,4107.81818141,8.2424242416,3836.84848446,3725.5757572,3697.75757539,230.787878765,4181.99999958,4174.78787837,4356.6363632,3886.30302991,4200.54545413,3136.24242393,4228.87878746,2546.90909065,4969.66666617,3070.30303,4108.84848444,4203.63636322,4379.81818138,2390.30303006,4192.30302988,1364.12121198,4938.75757526,3334.06060573,4419.99999956,758.303030227,42.0,42.0,?
2017-08-01 19:36:45.426622,4580.72727227,3787.39393902,4109.36363595,8.2424242416,3839.42424204,3725.5757572,3651.39393903,230.787878765,4187.15151473,4174.78787837,4363.84848441,3886.30302991,4192.8181814,3136.24242393,4228.36363594,2546.90909065,4956.27272678,3070.30303,4103.18181777,4215.99999958,4391.15151471,2390.30303006,4194.87878746,1364.12121198,4938.24242375,3334.06060573,4430.30302986,758.303030227,42.0,42.0,?
2017-08-01 19:36:45.434099,4586.39393894,3787.39393902,4110.9090905,8.2424242416,3847.15151477,3725.5757572,3708.5757572,230.787878765,4187.15151473,4174.78787837,4369.51515108,3886.30302991,4205.69696928,3136.24242393,4232.48484806,2546.90909065,4988.21212071,3070.30303,4107.81818141,4215.99999958,4398.87878744,2398.54545431,4192.8181814,1364.12121198,4938.75757526,3334.06060573,4439.57575713,758.303030227,42.0,42.0,?
2017-08-01 19:36:45.444141,4579.18181772,3787.39393902,4106.27272686,8.2424242416,3846.63636325,3725.5757572,3725.06060569,230.787878765,4194.36363594,4174.78787837,4365.90909047,3886.30302991,4218.06060564,3136.24242393,4235.06060564,2546.90909065,5001.09090859,3070.30303,4115.03030262,4215.99999958,4396.30302986,2398.54545431,4190.24242382,1364.12121198,4934.63636314,3334.06060573,4429.78787834,758.303030227,42.0,42.0,?
2017-08-01 19:36:45.450685,4583.81818136,3787.39393902,4108.84848444,8.2424242416,3847.66666628,3725.5757572,3700.33333296,230.787878765,4196.93939352,4174.78787837,4364.87878744,3886.30302991,4214.45454503,3136.24242393,4246.90909048,2546.90909065,4982.54545405,3070.30303,4119.15151474,4215.99999958,4401.45454501,2398.54545431,4192.8181814,1364.12121198,4942.87878738,3334.06060573,4431.33333289,758.303030227,42.0,42.0,?
2017-08-01 19:36:45.459936,4593.09090863,3787.39393902,4109.87878747,8.2424242416,3856.42424204,3725.5757572,3747.72727235,230.787878765,4186.63636322,4174.78787837,4368.99999956,3886.30302991,4208.27272685,3136.24242393,4253.09090867,2546.90909065,4970.6969692,3070.30303,4144.39393898,4215.99999958,4409.69696926,2398.54545431,4198.48484806,1364.12121198,4950.0909086,3334.06060573,4442.66666622,758.303030227,42.0,42.0,?
2017-08-01 19:36:45.465113,4587.93939348,3787.39393902,4109.36363595,8.2424242416,3862.0909087,3725.5757572,3779.66666629,230.787878765,4187.66666625,4174.78787837,4368.99999956,3886.30302991,4208.27272685,3136.24242393,4241.24242382,2546.90909065,4978.93939344,3070.30303,4161.90909049,4215.99999958,4408.66666623,2398.54545431,4196.424242,1364.12121198,4942.87878738,3334.06060573,4443.69696925,758.303030227,42.0,42.0,?
2017-08-01 19:36:45.473177,4586.90909045,3787.39393902,4113.48484807,8.2424242416,3857.96969658,3725.5757572,3736.90909054,230.787878765,4186.1212117,4174.78787837,4359.72727229,3886.30302991,4197.96969655,3136.24242393,4227.33333291,2546.90909065,4990.78787829,3070.30303,4127.9090905,4215.99999958,4406.60606017,2398.54545431,4187.15151473,1364.12121198,4940.81818132,3334.06060573,4442.15151471,758.303030227,42.0,42.0,?
2017-08-01 19:36:45.483213,4588.454545,3787.39393902,4108.84848444,8.2424242416,3855.90909052,3725.5757572,3673.03030266,230.787878765,4173.24242383,4174.78787837,4354.57575714,3886.30302991,4197.96969655,3136.24242393,4235.57575715,2546.90909065,5001.09090859,3070.30303,4117.09090868,4215.99999958,4409.69696926,2398.54545431,4186.1212117,1364.12121198,4942.36363587,3334.06060573,4439.06060562,758.303030227,42.0,42.0,?
2017-08-01 19:36:45.489827,4593.60606015,3787.39393902,4111.93939353,8.2424242416,3860.03030264,3725.5757572,3679.21212084,230.787878765,4179.42424201,4174.78787837,4362.81818138,3886.30302991,4221.15151473,3136.24242393,4256.18181776,2546.90909065,5010.36363586,3070.30303,4166.03030261,4215.99999958,4415.36363592,2398.54545431,4192.30302988,1364.12121198,4948.54545405,3334.06060573,4441.63636319,758.303030227,42.0,42.0,?
2017-08-01 19:36:45.498906,4591.03030257,3787.39393902,4113.48484807,8.2424242416,3863.63636325,3725.5757572,3748.75757538,230.787878765,4193.84848443,4174.78787837,4369.51515108,3886.30302991,4224.75757534,3136.24242393,4259.27272685,2546.90909065,4999.03030253,3070.30303,4185.09090867,4215.99999958,4408.66666623,2398.54545431,4193.84848443,1364.12121198,4945.96969648,3334.06060573,4444.21212077,758.303030227,42.0,42.0,?
2017-08-01 19:36:45.511889,4579.18181772,3787.39393902,4104.72727232,8.2424242416,3857.45454507,3725.5757572,3793.06060568,230.787878765,4192.8181814,4174.78787837,4370.54545411,3886.30302991,4206.72727231,3136.24242393,4241.24242382,2546.90909065,4970.6969692,3070.30303,4158.30302989,4215.99999958,4395.27272683,2398.54545431,4193.33333291,1364.12121198,4935.66666617,3334.06060573,4434.9393935,758.303030227,42.0,42.0,?
2017-08-01 19:36:45.513514,4584.33333287,3787.39393902,4107.81818141,8.2424242416,3851.7878784,3725.5757572,3737.42424205,230.787878765,4188.69696928,4174.78787837,4374.15151471,3886.30302991,4205.18181776,3136.24242393,4237.63636321,2546.90909065,4971.72727223,3070.30303,4154.18181777,4215.99999958,4397.84848441,2398.54545431,4193.84848443,1364.12121198,4940.30302981,3334.06060573,4428.75757531,758.303030227,42.0,42.0,?
2017-08-01 19:36:45.522304,4591.03030257,3787.39393902,4111.42424201,8.2424242416,3857.45454507,3725.5757572,3637.99999964,230.787878765,4191.27272685,4174.78787837,4374.66666623,3886.30302991,4216.51515109,3136.24242393,4254.1212117,2546.90909065,4999.03030253,3070.30303,4172.21212079,4215.99999958,4406.60606017,2398.54545431,4194.87878746,1364.12121198,4944.93939344,3334.06060573,4430.30302986,758.303030227,42.0,42.0,?
2017-08-01 19:36:45.528713,4589.99999954,3787.39393902,4109.87878747,8.2424242416,3867.24242386,3725.5757572,3655.51515115,230.787878765,4189.72727231,4174.78787837,4372.09090865,3886.30302991,4216.51515109,3136.24242393,4252.06060564,2546.90909065,4977.3939389,3070.30303,4178.90909049,4215.99999958,4409.69696926,2398.54545431,4196.424242,1364.12121198,4941.84848435,3334.06060573,4438.03030259,758.303030227,42.0,42.0,?
2017-08-01 19:36:45.536052,4585.87878742,3787.39393902,4109.36363595,8.2424242416,3870.33333295,3725.5757572,3813.66666629,230.787878765,4184.57575716,4174.78787837,4374.66666623,3886.30302991,4209.30302988,3136.24242393,4237.1212117,2546.90909065,4954.72727223,3070.30303,4184.57575716,4215.99999958,4408.66666623,2398.54545431,4196.424242,1364.12121198,4937.21212072,3334.06060573,4442.66666622,758.303030227,42.0,42.0,?
2017-08-01 19:36:45.545855,4581.24242378,3787.39393902,4111.42424201,8.2424242416,3867.75757537,3725.5757572,3851.27272689,230.787878765,4180.45454504,4174.78787837,4375.18181774,3886.30302991,4205.18181776,3136.24242393,4234.54545412,2546.90909065,4979.45454496,3070.30303,4164.99999958,4215.99999958,4407.6363632,2398.54545431,4193.33333291,1364.12121198,4939.78787829,3334.06060573,4434.9393935,758.303030227,42.0,42.0,?
2017-08-01 19:36:45.552151,4588.96969651,3787.39393902,4113.48484807,8.2424242416,3870.84848446,3725.5757572,3688.99999963,230.787878765,4183.03030261,4174.78787837,4373.12121168,3886.30302991,4206.72727231,3136.24242393,4246.39393897,2546.90909065,4990.27272677,3070.30303,4149.54545413,4215.99999958,4414.33333289,2398.54545431,4194.87878746,1364.12121198,4946.99999951,3334.06060573,4438.5454541,758.303030227,42.0,42.0,?
2017-08-01 19:36:45.561571,4589.48484803,3787.39393902,4108.33333292,8.2424242416,3882.18181779,3725.5757572,3650.87878751,230.787878765,4192.30302988,4174.78787837,4372.09090865,3886.30302991,4211.87878746,3136.24242393,4258.24242382,2546.90909065,4983.06060556,3070.30303,4188.18181776,4215.99999958,4415.36363592,2398.54545431,4197.96969655,1364.12121198,4941.33333284,3334.06060573,4445.2424238,758.303030227,42.0,42.0,?
2017-08-01 19:36:45.568002,4584.33333287,3787.39393902,4109.36363595,8.2424242416,3882.18181779,3725.5757572,3770.39393902,230.787878765,4190.24242382,4174.78787837,4365.90909047,3886.30302991,4208.27272685,3136.24242393,4249.48484806,2546.90909065,4978.42424193,3070.30303,4223.21212079,4215.99999958,4408.15151471,2398.54545431,4200.54545413,1364.12121198,4939.78787829,3334.06060573,4441.63636319,758.303030227,42.0,42.0,?
2017-08-01 19:36:45.576833,4586.90909045,3787.39393902,4112.96969656,8.2424242416,3872.90909052,3725.5757572,3770.39393902,230.787878765,4185.09090867,4174.78787837,4366.9393935,3886.30302991,4204.66666625,3136.24242393,4244.84848442,2546.90909065,4989.75757526,3070.30303,4219.09090867,4215.99999958,4409.69696926,2398.54545431,4202.09090867,1364.12121198,4944.42424193,3334.06060573,4439.57575713,758.303030227,42.0,42.0,?
2017-08-01 19:36:45.583238,4587.93939348,3787.39393902,4108.84848444,8.2424242416,3881.15151476,3725.5757572,3702.39393902,230.787878765,4192.8181814,4174.78787837,4379.81818138,3886.30302991,4215.48484806,3136.24242393,4261.84848442,2546.90909065,5027.36363586,3070.30303,4213.93939352,4215.99999958,4417.42424198,2398.54545431,4202.60606019,1364.12121198,4940.30302981,3334.06060573,4442.15151471,758.303030227,42.0,42.0,?
2017-08-01 19:36:45.592355,4595.15151469,3787.39393902,4109.36363595,8.2424242416,3896.0909087,3725.5757572,3732.2727269,230.787878765,4197.96969655,4174.78787837,4381.87878744,3886.30302991,4223.21212079,3136.24242393,4268.0303026,2546.90909065,5037.66666616,3070.30303,4221.66666624,4215.99999958,4422.06060562,2398.54545431,4203.1212117,1364.12121198,4944.42424193,3334.06060573,4446.78787834,758.303030227,42.0,42.0,?
2017-08-01 19:36:45.598796,4593.60606015,3787.39393902,4108.84848444,8.2424242416,3892.4848481,3725.5757572,3782.75757538,230.787878765,4190.24242382,4174.78787837,4372.60606017,3886.30302991,4214.96969655,3136.24242393,4254.1212117,2546.90909065,4984.60606011,3070.30303,4228.36363594,4215.99999958,4416.39393895,2398.54545431,4202.60606019,1364.12121198,4946.99999951,3334.06060573,4443.18181774,758.303030227,42.0,42.0,?
2017-08-01 19:36:45.611428,4586.39393894,3787.39393902,4109.36363595,8.2424242416,3887.33333294,3725.5757572,3718.87878751,230.787878765,4183.03030261,4174.78787837,4371.57575714,3886.30302991,4206.72727231,3136.24242393,4249.48484806,2546.90909065,4964.51515102,3070.30303,4245.36363594,4215.99999958,4411.75757532,2398.54545431,4203.63636322,1364.12121198,4940.81818132,3334.06060573,4442.15151471,758.303030227,42.0,42.0,?
2017-08-01 19:36:45.614161,4589.99999954,3787.39393902,4111.93939353,8.2424242416,3890.42424204,3725.5757572,3671.48484812,230.787878765,4188.69696928,4174.78787837,4378.78787835,3886.30302991,4213.93939352,3136.24242393,4258.75757533,2546.90909065,5013.96969647,3070.30303,4247.424242,4215.99999958,4414.33333289,2398.54545431,4203.1212117,1364.12121198,4942.87878738,3334.06060573,4448.8484844,758.303030227,42.0,42.0,?
2017-08-01 19:36:45.622166,4585.36363591,3787.39393902,4108.33333292,8.2424242416,3891.96969658,3725.5757572,3770.90909053,230.787878765,4194.87878746,4174.78787837,4381.36363593,3886.30302991,4220.63636321,3136.24242393,4268.0303026,2546.90909065,5035.09090859,3070.30303,4223.21212079,4215.99999958,4411.75757532,2398.54545431,4197.45454503,1364.12121198,4940.81818132,3334.06060573,4447.30302986,758.303030227,42.0,42.0,?
2017-08-01 19:36:45.630780,4586.90909045,3787.39393902,4111.42424201,8.2424242416,3891.96969658,3725.5757572,3827.57575719,230.787878765,4188.18181776,4174.78787837,4375.18181774,3886.30302991,4208.78787837,3136.24242393,4270.60606018,2546.90909065,5006.24242374,3070.30303,4230.93939352,4215.99999958,4407.6363632,2398.54545431,4195.90909049,1364.12121198,4938.75757526,3334.06060573,4449.36363592,758.303030227,42.0,42.0,?
2017-08-01 19:36:45.637090,4588.96969651,3787.39393902,4112.96969656,8.2424242416,3891.45454507,3725.5757572,3737.93939357,230.787878765,4180.45454504,4174.78787837,4370.03030259,3886.30302991,4201.06060564,3136.24242393,4258.24242382,2546.90909065,4983.06060556,3070.30303,4269.06060563,4215.99999958,4407.12121168,2398.54545431,4198.48484806,1364.12121198,4938.75757526,3334.06060573,4451.42424198,758.303030227,42.0,42.0,?
2017-08-01 19:36:45.646868,4583.30302984,3787.39393902,4110.39393898,8.2424242416,3882.69696931,3725.5757572,3689.51515115,230.787878765,4187.66666625,4174.78787837,4380.84848441,3886.30302991,4209.8181814,3136.24242393,4242.27272685,2546.90909065,4984.09090859,3070.30303,4277.30302988,4215.99999958,4406.09090865,2398.54545431,4195.90909049,1364.12121198,4936.6969692,3334.06060573,4443.69696925,758.303030227,42.0,42.0,?
2017-08-01 19:36:45.653105,4589.99999954,3787.39393902,4109.87878747,8.2424242416,3883.21212082,3725.5757572,3716.30302993,230.787878765,4196.424242,4174.78787837,4394.75757532,3886.30302991,4218.57575715,3136.24242393,4251.54545412,2546.90909065,5010.87878738,3070.30303,4273.18181775,4215.99999958,4417.9393935,2398.54545431,4194.87878746,1364.12121198,4944.93939344,3334.06060573,4446.78787834,758.303030227,42.0,42.0,?
2017-08-01 19:36:45.661608,4587.42424197,3787.39393902,4102.66666626,8.2424242416,3891.45454507,3725.5757572,3752.8787875,230.787878765,4199.5151511,4174.78787837,4391.15151471,3886.30302991,4222.18181776,3136.24242393,4269.06060563,2546.90909065,5026.84848435,3070.30303,4287.09090866,4215.99999958,4423.09090865,2398.54545431,4194.87878746,1364.12121198,4942.87878738,3334.06060573,4449.36363592,758.303030227,42.0,42.0,?
2017-08-01 19:36:45.669075,4583.30302984,3787.39393902,4107.30302989,8.2424242416,3885.27272688,3725.5757572,3806.45454507,230.787878765,4195.39393897,4174.78787837,4378.27272683,3886.30302991,4217.03030261,3136.24242393,4265.45454503,2546.90909065,5004.18181768,3070.30303,4279.36363594,4215.99999958,4408.66666623,2398.54545431,4191.78787837,1364.12121198,4941.84848435,3334.06060573,4446.27272683,758.303030227,42.0,42.0,?
2017-08-01 19:36:45.677825,4589.48484803,3787.39393902,4112.45454504,8.2424242416,3884.24242385,3725.5757572,3755.96969659,230.787878765,4188.69696928,4174.78787837,4374.66666623,3886.30302991,4205.18181776,3136.24242393,4259.27272685,2546.90909065,4991.3030298,3070.30303,4263.90909048,4215.99999958,4399.90909047,2398.54545431,4195.39393897,1364.12121198,4948.03030254,3334.06060573,4447.81818137,758.303030227,42.0,42.0,?
2017-08-01 19:36:45.684704,4586.39393894,3787.39393902,4104.72727232,8.2424242416,3893.51515113,3725.5757572,3663.24242388,230.787878765,4192.8181814,4174.78787837,4384.45454502,3886.30302991,4212.90909049,3136.24242393,4271.12121169,2546.90909065,5016.54545404,3070.30303,4282.45454503,4215.99999958,4405.57575714,2398.54545431,4201.57575716,1364.12121198,4941.84848435,3334.06060573,4449.36363592,758.303030227,42.0,42.0,?
2017-08-01 19:36:45.692384,4590.51515106,3787.39393902,4108.84848444,8.2424242416,3892.99999961,3725.5757572,3723.51515114,230.787878765,4192.30302988,4174.78787837,4389.09090865,3886.30302991,4226.8181814,3136.24242393,4280.90909048,2546.90909065,5047.45454495,3070.30303,4289.66666624,4215.99999958,4409.18181774,2398.54545431,4198.99999958,1364.12121198,4947.51515102,3334.06060573,4454.51515107,758.303030227,42.0,42.0,?
2017-08-01 19:36:45.700815,4590.51515106,3787.39393902,4110.39393898,8.2424242416,3892.99999961,3725.5757572,3814.69696932,230.787878765,4180.45454504,4174.78787837,4387.54545411,3886.30302991,4224.75757534,3136.24242393,4281.93939351,2546.90909065,5056.72727222,3070.30303,4279.36363594,4215.99999958,4401.45454501,2398.54545431,4194.36363594,1364.12121198,4947.51515102,3334.06060573,4452.96969652,758.303030227,42.0,42.0,?
2017-08-01 19:36:45.708573,4585.36363591,3787.39393902,4109.87878747,8.2424242416,3893.51515113,3725.5757572,3771.42424205,230.787878765,4178.39393898,4174.78787837,4389.09090865,3886.30302991,4218.06060564,3136.24242393,4274.7272723,2546.90909065,5022.21212071,3070.30303,4277.81818139,4215.99999958,4398.36363592,2398.54545431,4194.87878746,1364.12121198,4938.75757526,3334.06060573,4441.63636319,758.303030227,42.0,42.0,?
2017-08-01 19:36:45.716189,4582.78787833,3787.39393902,4113.48484807,8.2424242416,3877.03030264,3725.5757572,3729.18181781,230.787878765,4188.18181776,4174.78787837,4384.96969653,3886.30302991,4206.72727231,3136.24242393,4251.54545412,2546.90909065,4967.60606011,3070.30303,4269.06060563,4215.99999958,4395.27272683,2398.54545431,4193.33333291,1364.12121198,4938.24242375,3334.06060573,4428.75757531,758.303030227,42.0,42.0,?
2017-08-01 19:36:45.723803,4575.0606056,3787.39393902,4107.81818141,8.2424242416,3865.69696931,3725.5757572,3752.36363599,230.787878765,4188.18181776,4174.78787837,4383.9393935,3886.30302991,4202.09090867,3136.24242393,4247.424242,2546.90909065,4965.54545405,3070.30303,4266.48484806,4215.99999958,4388.57575714,2398.54545431,4190.24242382,1364.12121198,4934.63636314,3334.06060573,4426.69696925,758.303030227,42.0,42.0,?
2017-08-01 19:36:45.734636,4584.33333287,3787.39393902,4108.33333292,8.2424242416,3878.57575719,3725.5757572,3726.60606023,230.787878765,4186.1212117,4174.78787837,4392.69696926,3886.30302991,4220.1212117,3136.24242393,4270.09090866,2546.90909065,5005.72727223,3070.30303,4280.39393897,4215.99999958,4395.78787835,2398.54545431,4194.36363594,1364.12121198,4939.27272678,3334.06060573,4441.12121168,758.303030227,42.0,42.0,?
2017-08-01 19:36:45.744018,4586.90909045,3787.39393902,4110.39393898,8.2424242416,3883.72727234,3725.5757572,3748.75757538,230.787878765,4192.30302988,4174.78787837,4396.30302986,3886.30302991,4230.424242,3136.24242393,4276.27272685,2546.90909065,5023.75757526,3070.30303,4277.30302988,4215.99999958,4398.36363592,2398.54545431,4195.39393897,1364.12121198,4939.78787829,3334.06060573,4443.18181774,758.303030227,42.0,42.0,?
2017-08-01 19:36:45.748139,4580.21212075,3787.39393902,4108.84848444,8.2424242416,3885.27272688,3725.5757572,3786.36363599,230.787878765,4190.24242382,4174.78787837,4389.09090865,3886.30302991,4222.18181776,3136.24242393,4269.57575715,2546.90909065,5018.6060601,3070.30303,4266.99999957,4215.99999958,4396.30302986,2398.54545431,4194.36363594,1364.12121198,4937.21212072,3334.06060573,4438.5454541,758.303030227,42.0,42.0,?
2017-08-01 19:36:45.759330,4590.51515106,3787.39393902,4109.36363595,8.2424242416,3895.06060567,3725.5757572,3723.51515114,230.787878765,4179.93939352,4174.78787837,4382.90909047,3886.30302991,4221.66666624,3136.24242393,4279.36363594,2546.90909065,5023.24242374,3070.30303,4279.36363594,4215.99999958,4408.15151471,2398.54545431,4194.87878746,1364.12121198,4943.90909041,3334.06060573,4446.78787834,758.303030227,42.0,42.0,?
2017-08-01 19:36:45.765140,4588.454545,3787.39393902,4107.30302989,8.2424242416,3892.99999961,3725.5757572,3697.24242387,230.787878765,4177.36363595,4174.78787837,4378.78787835,3886.30302991,4220.63636321,3136.24242393,4287.09090866,2546.90909065,5043.33333283,3070.30303,4278.84848442,4215.99999958,4404.54545411,2398.54545431,4189.72727231,1364.12121198,4939.27272678,3334.06060573,4445.75757531,758.303030227,42.0,42.0,?
2017-08-01 19:36:45.770739,4580.72727227,3787.39393902,4109.87878747,8.2424242416,3879.0909087,3725.5757572,3756.48484811,230.787878765,4179.42424201,4174.78787837,4373.6363632,3886.30302991,4206.21212079,3136.24242393,4270.09090866,2546.90909065,5031.9999995,3070.30303,4251.54545412,4215.99999958,4389.60606017,2398.54545431,4185.09090867,1364.12121198,4938.24242375,3334.06060573,4440.60606016,758.303030227,42.0,42.0,?
2017-08-01 19:36:45.778102,4580.72727227,3787.39393902,4110.9090905,8.2424242416,3875.99999961,3725.5757572,3787.39393902,230.787878765,4179.93939352,4174.78787837,4369.51515108,3886.30302991,4198.48484806,3136.24242393,4251.03030261,2546.90909065,4983.06060556,3070.30303,4248.96969654,4215.99999958,4392.69696926,2398.54545431,4187.15151473,1364.12121198,4941.84848435,3334.06060573,4442.66666622,758.303030227,42.0,42.0,?
2017-08-01 19:36:45.787317,4584.33333287,3787.39393902,4109.87878747,8.2424242416,3880.63636325,3725.5757572,3779.15151477,230.787878765,4180.45454504,4174.78787837,4372.09090865,3886.30302991,4197.45454503,3136.24242393,4253.60606018,2546.90909065,4980.9999995,3070.30303,4266.99999957,4215.99999958,4400.42424198,2398.54545431,4190.24242382,1364.12121198,4940.81818132,3334.06060573,4443.69696925,758.303030227,42.0,42.0,?
2017-08-01 19:36:45.795024,4588.96969651,3787.39393902,4111.93939353,8.2424242416,3883.72727234,3725.5757572,3781.21212083,230.787878765,4179.93939352,4174.78787837,4382.90909047,3886.30302991,4200.03030261,3136.24242393,4268.54545412,2546.90909065,5021.18181768,3070.30303,4260.81818139,4215.99999958,4395.27272683,2398.54545431,4187.66666625,1364.12121198,4942.36363587,3334.06060573,4444.21212077,758.303030227,42.0,42.0,?
2017-08-01 19:36:45.802776,4588.96969651,3787.39393902,4109.36363595,8.2424242416,3895.06060567,3725.5757572,3731.75757538,230.787878765,4178.39393898,4174.78787837,4392.18181774,3886.30302991,4214.45454503,3136.24242393,4283.48484806,2546.90909065,5026.84848435,3070.30303,4265.96969654,4215.99999958,4395.27272683,2398.54545431,4188.69696928,1364.12121198,4940.30302981,3334.06060573,4445.75757531,758.303030227,42.0,42.0,?
2017-08-01 19:36:45.809534,4593.60606015,3787.39393902,4110.39393898,8.2424242416,3898.15151476,3725.5757572,3702.90909054,230.787878765,4181.48484807,4174.78787837,4386.51515108,3886.30302991,4214.45454503,3136.24242393,4280.90909048,2546.90909065,5001.09090859,3070.30303,4292.24242381,4215.99999958,4409.69696926,2398.54545431,4194.36363594,1364.12121198,4943.3939389,3334.06060573,4450.90909046,758.303030227,42.0,42.0,?
2017-08-01 19:36:45.817255,4586.39393894,3770.90909053,4109.36363595,8.2424242416,3880.63636325,3725.5757572,3769.8787875,230.787878765,4188.69696928,4174.78787837,4380.3333329,3886.30302991,4191.27272685,3136.24242393,4265.45454503,2546.90909065,4985.12121162,3070.30303,4281.93939351,4215.99999958,4408.66666623,2398.54545431,4189.72727231,1364.12121198,4940.81818132,3334.06060573,4446.78787834,758.303030227,42.0,42.0,?
2017-08-01 19:36:45.826025,4576.60606015,3770.90909053,4107.81818141,0.0,3877.03030264,3725.5757572,3780.69696932,230.787878765,4189.21212079,4174.78787837,4387.03030259,3886.30302991,4191.78787837,3136.24242393,4269.06060563,2546.90909065,4999.54545405,3070.30303,4261.84848442,4215.99999958,4393.72727229,2398.54545431,4185.09090867,1364.12121198,4933.0909086,3334.06060573,4441.12121168,758.303030227,42.0,42.0,?
2017-08-01 19:36:45.833954,4586.90909045,3770.90909053,4111.42424201,0.0,3891.45454507,3725.5757572,3741.03030266,230.787878765,4178.90909049,4174.78787837,4390.6363632,3886.30302991,4217.03030261,3136.24242393,4278.33333291,2546.90909065,5033.54545404,3070.30303,4280.39393897,4215.99999958,4395.27272683,2398.54545431,4190.24242382,1364.12121198,4940.30302981,3334.06060573,4447.81818137,737.696969623,42.0,42.0,?
2017-08-01 19:36:45.845011,4587.42424197,3770.90909053,4108.84848444,0.0,3892.99999961,3737.93939357,3758.03030265,230.787878765,4177.36363595,4174.78787837,4386.51515108,3886.30302991,4223.7272723,3136.24242393,4276.78787836,2546.90909065,5046.93939343,3070.30303,4297.90909048,4215.99999958,4401.96969653,2398.54545431,4194.36363594,1364.12121198,4940.81818132,3334.06060573,4448.8484844,737.696969623,42.0,42.0,?
2017-08-01 19:36:45.850703,4584.84848439,3770.90909053,4109.36363595,0.0,3881.66666628,3737.93939357,3747.21212084,325.575757543,4189.21212079,4174.78787837,4384.45454502,3886.30302991,4215.48484806,3136.24242393,4280.39393897,2546.90909065,5021.69696919,3070.30303,4281.424242,4215.99999958,4400.9393935,2398.54545431,4191.78787837,1364.12121198,4940.30302981,3334.06060573,4450.39393895,737.696969623,42.0,42.0,?
2017-08-01 19:36:45.858880,4588.454545,3770.90909053,4111.42424201,0.0,3880.63636325,3737.93939357,3725.06060569,325.575757543,4187.66666625,4183.03030261,4382.39393896,3886.30302991,4216.51515109,3136.24242393,4291.21212078,2546.90909065,5008.3030298,3070.30303,4261.84848442,4215.99999958,4397.84848441,2398.54545431,4189.21212079,1364.12121198,4940.81818132,3334.06060573,4452.45454501,737.696969623,42.0,42.0,?
2017-08-01 19:36:45.864188,4582.27272681,3770.90909053,4108.84848444,0.0,3884.75757537,3737.93939357,3815.21212083,325.575757543,4175.8181814,4183.03030261,4376.72727229,3873.93939355,4204.15151473,3136.24242393,4277.81818139,2546.90909065,5006.75757526,3070.30303,4257.7272723,4215.99999958,4393.21212077,2398.54545431,4190.75757534,1364.12121198,4935.15151466,3334.06060573,4444.21212077,737.696969623,42.0,42.0,?
2017-08-01 19:36:45.875026,4583.81818136,3770.90909053,4110.9090905,0.0,3878.57575719,3737.93939357,3816.24242386,325.575757543,4170.15151473,4183.03030261,4375.18181774,3873.93939355,4179.93939352,3136.24242393,4251.54545412,2546.90909065,4992.33333283,3070.30303,4250.51515109,4215.99999958,4392.18181774,2398.54545431,4191.78787837,1364.12121198,4940.30302981,3334.06060573,4443.69696925,737.696969623,42.0,42.0,?
2017-08-01 19:36:45.880312,4586.39393894,3770.90909053,4106.78787838,0.0,3877.03030264,3737.93939357,3687.9696966,325.575757543,4170.15151473,4183.03030261,4379.81818138,3873.93939355,4185.60606019,3136.24242393,4260.81818139,2546.90909065,5004.6969692,3070.30303,4242.27272685,4215.99999958,4398.87878744,2398.54545431,4191.27272685,1364.12121198,4944.42424193,3334.06060573,4450.90909046,737.696969623,42.0,42.0,?
2017-08-01 19:36:45.888346,4586.39393894,3770.90909053,4109.36363595,0.0,3879.0909087,3737.93939357,3720.93939357,325.575757543,4174.27272686,4183.03030261,4380.3333329,3873.93939355,4201.06060564,3136.24242393,4273.69696927,2546.90909065,5010.36363586,3078.54545424,4242.78787836,4215.99999958,4401.96969653,2398.54545431,4190.75757534,1364.12121198,4943.90909041,3334.06060573,4451.93939349,737.696969623,42.0,42.0,?
2017-08-01 19:36:45.898469,4585.36363591,3770.90909053,4114.5151511,0.0,3870.84848446,3737.93939357,3824.99999962,325.575757543,4178.39393898,4183.03030261,4381.87878744,3873.93939355,4195.90909049,3136.24242393,4261.84848442,2546.90909065,4994.90909041,3078.54545424,4238.66666624,4211.87878746,4392.69696926,2398.54545431,4190.24242382,1364.12121198,4941.33333284,3334.06060573,4444.72727228,737.696969623,42.0,42.0,?
2017-08-01 19:36:45.905232,4577.12121166,3770.90909053,4107.81818141,0.0,3862.0909087,3737.93939357,3789.45454508,325.575757543,4181.48484807,4183.03030261,4388.06060562,3873.93939355,4203.1212117,3136.24242393,4273.69696927,2546.90909065,5024.78787829,3078.54545424,4231.45454503,4211.87878746,4389.09090865,2415.03030279,4186.1212117,1364.12121198,4935.15151466,3334.06060573,4439.06060562,737.696969623,42.0,42.0,?
2017-08-01 19:36:45.912009,4582.78787833,3770.90909053,4110.39393898,0.0,3855.39393901,3737.93939357,3756.48484811,325.575757543,4187.15151473,4183.03030261,4391.66666623,3873.93939355,4224.24242382,3136.24242393,4306.66666624,2546.90909065,5051.06060556,3078.54545424,4239.69696927,4211.87878746,4397.84848441,2415.03030279,4186.63636322,1355.87878774,4939.78787829,3334.06060573,4444.72727228,737.696969623,42.0,42.0,?
2017-08-01 19:36:45.919770,4586.90909045,3770.90909053,4112.45454504,0.0,3857.96969658,3737.93939357,3742.06060569,325.575757543,4201.06060564,4183.03030261,4396.81818138,3873.93939355,4232.48484806,3136.24242393,4315.93939351,2546.90909065,5027.87878738,3078.54545424,4265.96969654,4211.87878746,4401.96969653,2415.03030279,4193.84848443,1355.87878774,4943.90909041,3325.81818149,4450.90909046,737.696969623,42.0,42.0,?
2017-08-01 19:36:45.929070,4586.90909045,3770.90909053,4108.84848444,0.0,3870.84848446,3737.93939357,3724.54545417,325.575757543,4207.24242382,4183.03030261,4410.21212077,3873.93939355,4243.30302988,3136.24242393,4319.0303026,2546.90909065,5041.78787828,3078.54545424,4281.93939351,4207.75757534,4406.09090865,2415.03030279,4196.424242,1355.87878774,4945.45454496,3325.81818149,4456.06060561,737.696969623,42.0,42.0,?
2017-08-01 19:36:45.935045,4592.57575712,3770.90909053,4109.36363595,0.0,3873.42424204,3737.93939357,3775.03030265,325.575757543,4203.63636322,4183.03030261,4416.90909047,3873.93939355,4253.09090867,3136.24242393,4328.81818139,2546.90909065,5070.63636313,3078.54545424,4278.33333291,4207.75757534,4412.27272683,2415.03030279,4192.8181814,1355.87878774,4946.48484799,3325.81818149,4458.63636319,737.696969623,42.0,42.0,?
2017-08-01 19:36:45.943802,4586.90909045,3770.90909053,4107.30302989,0.0,3857.96969658,3737.93939357,3793.06060568,325.575757543,4207.24242382,4183.03030261,4412.27272683,3873.93939355,4254.63636321,3136.24242393,4327.27272684,2546.90909065,5044.87878737,3078.54545424,4270.60606018,4207.75757534,4405.57575714,2415.03030279,4190.75757534,1355.87878774,4937.21212072,3325.81818149,4454.51515107,737.696969623,42.0,42.0,?
2017-08-01 19:36:45.951210,4586.90909045,3770.90909053,4109.36363595,0.0,3851.27272689,3737.93939357,3788.42424205,325.575757543,4202.60606019,4183.03030261,4408.15151471,3873.93939355,4246.39393897,3136.24242393,4316.96969654,2546.90909065,5019.12121162,3078.54545424,4248.45454503,4207.75757534,4397.33333289,2415.03030279,4189.72727231,1355.87878774,4937.72727223,3325.81818149,4455.5454541,737.696969623,42.0,42.0,?
2017-08-01 19:36:45.958461,4585.36363591,3770.90909053,4108.84848444,0.0,3862.60606022,3737.93939357,3806.96969659,325.575757543,4184.57575716,4183.03030261,4403.51515107,3873.93939355,4220.63636321,3136.24242393,4303.06060563,2546.90909065,5022.21212071,3078.54545424,4228.87878746,4207.75757534,4390.12121168,2415.03030279,4186.1212117,1355.87878774,4938.24242375,3325.81818149,4449.87878743,737.696969623,42.0,42.0,?
2017-08-01 19:36:45.967239,4577.12121166,3770.90909053,4106.78787838,0.0,3862.60606022,3737.93939357,3767.81818144,325.575757543,4178.90909049,4183.03030261,4398.36363592,3873.93939355,4206.72727231,3136.24242393,4297.39393896,2546.90909065,5021.69696919,3078.54545424,4237.63636321,4207.75757534,4380.3333329,2415.03030279,4184.57575716,1355.87878774,4931.03030254,3325.81818149,4440.60606016,737.696969623,42.0,42.0,?
2017-08-01 19:36:45.974537,4579.69696924,3770.90909053,4110.39393898,0.0,3852.81818143,3737.93939357,3738.45454508,325.575757543,4186.63636322,4183.03030261,4396.81818138,3873.93939355,4216.51515109,3136.24242393,4300.48484805,2546.90909065,5031.9999995,3078.54545424,4249.48484806,4207.75757534,4381.36363593,2415.03030279,4187.66666625,1355.87878774,4933.60606011,3325.81818149,4445.75757531,737.696969623,42.0,42.0,?
2017-08-01 19:36:45.981738,4583.81818136,3770.90909053,4109.36363595,0.0,3855.90909052,3737.93939357,3808.51515113,325.575757543,4193.33333291,4183.03030261,4390.6363632,3873.93939355,4211.87878746,3136.24242393,4294.81818139,2546.90909065,5039.21212071,3078.54545424,4245.87878745,4207.75757534,4391.66666623,2415.03030279,4190.24242382,1355.87878774,4935.66666617,3325.81818149,4451.42424198,737.696969623,42.0,42.0,?
2017-08-01 19:36:45.989159,4594.12121166,3770.90909053,4109.87878747,0.0,3866.21212083,3737.93939357,3828.60606022,325.575757543,4193.84848443,4183.03030261,4385.99999956,3873.93939355,4197.96969655,3136.24242393,4285.0303026,2546.90909065,5018.09090859,3078.54545424,4242.78787836,4207.75757534,4404.03030259,2415.03030279,4194.36363594,1355.87878774,4941.84848435,3325.81818149,4458.63636319,737.696969623,42.0,42.0,?
2017-08-01 19:36:45.998820,4594.63636318,3770.90909053,4109.36363595,0.0,3873.42424204,3737.93939357,3743.60606023,325.575757543,4190.24242382,4183.03030261,4392.69696926,3873.93939355,4206.21212079,3136.24242393,4295.3333329,2546.90909065,5027.87878738,3078.54545424,4252.57575715,4207.75757534,4408.15151471,2415.03030279,4197.45454503,1355.87878774,4941.84848435,3325.81818149,4462.75757531,737.696969623,42.0,42.0,?
2017-08-01 19:36:46.006146,4584.33333287,3770.90909053,4106.78787838,0.0,3870.84848446,3737.93939357,3723.51515114,325.575757543,4198.48484806,4183.03030261,4401.96969653,3873.93939355,4219.09090867,3136.24242393,4320.06060563,2546.90909065,5060.33333283,3078.54545424,4259.78787836,4207.75757534,4404.03030259,2415.03030279,4193.84848443,1355.87878774,4937.21212072,3325.81818149,4459.15151471,737.696969623,42.0,42.0,?
2017-08-01 19:36:46.016236,4588.454545,3770.90909053,4109.87878747,0.0,3865.1818178,3737.93939357,3753.39393902,325.575757543,4212.90909049,4183.03030261,4405.57575714,3873.93939355,4224.24242382,3136.24242393,4334.48484805,2546.90909065,5044.87878737,3078.54545424,4265.45454503,4207.75757534,4406.60606017,2415.03030279,4194.36363594,1355.87878774,4943.3939389,3325.81818149,4459.66666622,737.696969623,42.0,42.0,?
2017-08-01 19:36:46.022217,4583.81818136,3770.90909053,4108.33333292,0.0,3862.0909087,3737.93939357,3793.06060568,325.575757543,4210.33333291,4183.03030261,4408.15151471,3873.93939355,4232.48484806,3136.24242393,4333.96969654,2546.90909065,5026.33333283,3078.54545424,4263.90909048,4207.75757534,4404.03030259,2415.03030279,4195.90909049,1355.87878774,4934.63636314,3325.81818149,4453.48484804,737.696969623,42.0,42.0,?
2017-08-01 19:36:46.028615,4574.54545409,3770.90909053,4112.96969656,0.0,3853.84848446,3737.93939357,3833.24242386,325.575757543,4200.03030261,4183.03030261,4408.15151471,3873.93939355,4229.39393897,3136.24242393,4322.12121169,2546.90909065,5047.45454495,3078.54545424,4251.03030261,4207.75757534,4390.12121168,2415.03030279,4191.27272685,1355.87878774,4927.93939345,3325.81818149,4444.21212077,737.696969623,42.0,42.0,?
2017-08-01 19:36:46.036092,4575.57575712,3770.90909053,4116.06060565,0.0,3839.93939356,3737.93939357,3827.57575719,325.575757543,4203.1212117,4183.03030261,4408.15151471,3873.93939355,4227.84848443,3136.24242393,4320.57575714,2546.90909065,5049.51515101,3078.54545424,4258.75757533,4207.75757534,4391.15151471,2415.03030279,4190.75757534,1355.87878774,4937.21212072,3325.81818149,4446.78787834,737.696969623,42.0,42.0,?
2017-08-01 19:36:46.045939,4575.0606056,3770.90909053,4108.33333292,0.0,3841.4848481,3737.93939357,3798.21212083,325.575757543,4206.21212079,4183.03030261,4415.36363592,3873.93939355,4242.78787836,3136.24242393,4333.45454502,2546.90909065,5038.18181768,3078.54545424,4274.21212078,4207.75757534,4399.90909047,2415.03030279,4193.33333291,1355.87878774,4938.24242375,3325.81818149,4448.33333289,737.696969623,42.0,42.0,?
2017-08-01 19:36:46.052744,4580.72727227,3770.90909053,4108.33333292,0.0,3851.7878784,3737.93939357,3759.5757572,325.575757543,4198.48484806,4183.03030261,4422.57575713,3873.93939355,4247.93939351,3136.24242393,4332.93939351,2546.90909065,5052.6060601,3078.54545424,4276.78787836,4207.75757534,4401.96969653,2415.03030279,4191.78787837,1355.87878774,4942.36363587,3325.81818149,4445.2424238,737.696969623,42.0,42.0,?
2017-08-01 19:36:46.060225,4584.33333287,3770.90909053,4109.87878747,0.0,3860.54545416,3737.93939357,3779.66666629,325.575757543,4198.99999958,4183.03030261,4427.21212077,3873.93939355,4241.24242382,3136.24242393,4326.75757532,2546.90909065,5057.24242374,3078.54545424,4289.15151472,4207.75757534,4408.15151471,2415.03030279,4190.75757534,1355.87878774,4946.48484799,3325.81818149,4445.75757531,737.696969623,42.0,42.0,?
2017-08-01 19:36:46.069859,4591.03030257,3770.90909053,4111.42424201,0.0,3875.99999961,3737.93939357,3818.81818144,325.575757543,4202.09090867,4183.03030261,4425.66666622,3873.93939355,4241.75757533,3136.24242393,4331.90909048,2546.90909065,5052.09090859,3078.54545424,4302.0303026,4207.75757534,4422.57575713,2415.03030279,4193.33333291,1355.87878774,4948.03030254,3325.81818149,4462.75757531,737.696969623,42.0,42.0,?
2017-08-01 19:36:46.076103,4599.27272681,3770.90909053,4109.87878747,0.0,3885.7878784,3737.93939357,3777.60606023,325.575757543,4198.48484806,4183.03030261,4419.99999956,3873.93939355,4246.39393897,3136.24242393,4344.78787835,2546.90909065,5076.81818131,3078.54545424,4300.48484805,4207.75757534,4429.78787834,2415.03030279,4192.30302988,1355.87878774,4949.57575708,3325.81818149,4478.72727228,737.696969623,42.0,42.0,?
2017-08-01 19:36:46.084743,4595.66666621,3770.90909053,4105.75757535,0.0,3877.54545416,3737.93939357,3753.39393902,325.575757543,4196.93939352,4183.03030261,4421.5454541,3873.93939355,4249.99999958,3136.24242393,4351.99999956,2546.90909065,5106.18181767,3078.54545424,4311.81818139,4207.75757534,4428.2424238,2415.03030279,4192.30302988,1355.87878774,4943.90909041,3325.81818149,4475.12121167,737.696969623,42.0,42.0,?
2017-08-01 19:36:46.091218,4592.57575712,3770.90909053,4112.45454504,0.0,3854.36363598,3737.93939357,3815.72727235,325.575757543,4201.57575716,4183.03030261,4418.96969653,3873.93939355,4242.27272685,3136.24242393,4335.51515108,2546.90909065,5080.93939343,3078.54545424,4309.24242381,4207.75757534,4419.48484804,2415.03030279,4193.84848443,1355.87878774,4942.36363587,3325.81818149,4464.81818137,737.696969623,42.0,42.0,?
2017-08-01 19:36:46.099225,4580.72727227,3770.90909053,4109.87878747,0.0,3837.87878749,3737.93939357,3821.39393901,325.575757543,4205.18181776,4183.03030261,4407.12121168,3873.93939355,4226.8181814,3136.24242393,4317.48484805,2546.90909065,5034.57575707,3078.54545424,4261.84848442,4207.75757534,4399.39393895,2415.03030279,4187.15151473,1355.87878774,4935.15151466,3325.81818149,4449.87878743,737.696969623,42.0,42.0,?
2017-08-01 19:36:46.109467,4574.54545409,3770.90909053,4106.27272686,0.0,3836.33333295,3737.93939357,3718.36363599,325.575757543,4196.93939352,4183.03030261,4402.48484804,3873.93939355,4221.15151473,3136.24242393,4324.18181775,2546.90909065,5038.69696919,3078.54545424,4253.09090867,4207.75757534,4389.09090865,2415.03030279,4187.15151473,1355.87878774,4929.99999951,3325.81818149,4442.15151471,737.696969623,42.0,42.0,?
2017-08-01 19:36:46.114601,4580.72727227,3770.90909053,4113.48484807,0.0,3830.66666628,3737.93939357,3708.06060569,325.575757543,4192.8181814,4183.03030261,4409.69696926,3873.93939355,4223.7272723,3136.24242393,4337.06060563,2546.90909065,5066.51515101,3078.54545424,4297.39393896,4207.75757534,4391.66666623,2415.03030279,4194.36363594,1355.87878774,4933.60606011,3325.81818149,4445.2424238,737.696969623,42.0,42.0,?
2017-08-01 19:36:46.122811,4575.0606056,3770.90909053,4108.33333292,0.0,3815.21212083,3737.93939357,3829.63636325,325.575757543,4204.66666625,4183.03030261,4414.33333289,3873.93939355,4217.54545412,3136.24242393,4329.84848442,2546.90909065,5053.63636313,3078.54545424,4296.87878745,4207.75757534,4385.48484805,2415.03030279,4191.78787837,1355.87878774,4928.96969648,3325.81818149,4439.06060562,737.696969623,42.0,42.0,?
2017-08-01 19:36:46.132657,4576.60606015,3770.90909053,4104.2121208,0.0,3810.06060568,3737.93939357,3849.72727234,325.575757543,4204.15151473,4183.03030261,4411.75757532,3873.93939355,4209.30302988,3136.24242393,4317.48484805,2546.90909065,5036.63636313,3078.54545424,4256.18181776,4207.75757534,4385.99999956,2415.03030279,4188.69696928,1355.87878774,4932.57575708,3325.81818149,4436.48484804,737.696969623,42.0,42.0,?
2017-08-01 19:36:46.142493,4579.69696924,3770.90909053,4107.30302989,0.0,3810.57575719,3737.93939357,3767.30302993,325.575757543,4191.78787837,4183.03030261,4410.21212077,3873.93939355,4214.45454503,3136.24242393,4317.48484805,2546.90909065,5055.18181768,3078.54545424,4265.96969654,4207.75757534,4399.39393895,2415.03030279,4190.24242382,1355.87878774,4938.75757526,3325.81818149,4445.2424238,737.696969623,42.0,42.0,?
2017-08-01 19:36:46.148263,4575.57575712,3770.90909053,4109.36363595,0.0,3804.39393901,3737.93939357,3823.96969659,325.575757543,4196.93939352,4183.03030261,4418.45454501,3873.93939355,4223.7272723,3136.24242393,4318.51515108,2546.90909065,5045.9090904,3078.54545424,4292.24242381,4207.75757534,4404.03030259,2415.03030279,4192.30302988,1355.87878774,4936.18181769,3325.81818149,4448.8484844,737.696969623,42.0,42.0,?
2017-08-01 19:36:46.154772,4577.63636318,3770.90909053,4109.87878747,0.0,3805.42424204,3737.93939357,3857.96969658,325.575757543,4205.18181776,4183.03030261,4425.66666622,3873.93939355,4226.30302988,3136.24242393,4326.75757532,2546.90909065,5025.3030298,3078.54545424,4274.7272723,4207.75757534,4399.39393895,2415.03030279,4191.78787837,1355.87878774,4935.66666617,3325.81818149,4445.75757531,737.696969623,42.0,42.0,?
2017-08-01 19:36:46.161382,4577.63636318,3770.90909053,4106.27272686,0.0,3820.36363598,3737.93939357,3698.2727269,325.575757543,4202.60606019,4183.03030261,4419.99999956,3873.93939355,4230.93939352,3136.24242393,4339.6363632,2546.90909065,5050.54545404,3078.54545424,4276.27272685,4207.75757534,4400.42424198,2415.03030279,4193.84848443,1355.87878774,4934.12121163,3325.81818149,4445.75757531,737.696969623,42.0,42.0,?
2017-08-01 19:36:46.169335,4581.24242378,3770.90909053,4107.81818141,0.0,3826.03030265,3737.93939357,3704.45454508,325.575757543,4196.93939352,4183.03030261,4415.36363592,3873.93939355,4228.87878746,3136.24242393,4331.90909048,2546.90909065,5073.2121207,3078.54545424,4302.54545412,4207.75757534,4406.09090865,2415.03030279,4194.87878746,1355.87878774,4938.75757526,3325.81818149,4456.57575713,737.696969623,42.0,42.0,?
2017-08-01 19:36:46.177840,4580.72727227,3770.90909053,4107.81818141,0.0,3815.72727235,3737.93939357,3882.18181779,325.575757543,4192.30302988,4183.03030261,4421.5454541,3873.93939355,4228.36363594,3136.24242393,4324.18181775,2546.90909065,5069.6060601,3078.54545424,4299.45454502,4207.75757534,4404.03030259,2415.03030279,4190.75757534,1355.87878774,4938.75757526,3325.81818149,4456.57575713,737.696969623,42.0,42.0,?
2017-08-01 19:36:46.186456,4576.09090863,3770.90909053,4106.78787838,0.0,3815.72727235,3737.93939357,3849.21212083,325.575757543,4194.36363594,4183.03030261,4429.27272683,3873.93939355,4239.69696927,3136.24242393,4338.09090866,2546.90909065,5060.84848434,3078.54545424,4292.24242381,4207.75757534,4402.48484804,2415.03030279,4190.75757534,1355.87878774,4935.15151466,3325.81818149,4447.30302986,737.696969623,42.0,42.0,?
2017-08-01 19:36:46.193890,4581.24242378,3770.90909053,4110.9090905,0.0,3828.09090871,3737.93939357,3767.30302993,325.575757543,4199.5151511,4183.03030261,4427.72727228,3873.93939355,4236.09090867,3136.24242393,4342.72727229,2546.90909065,5044.87878737,3078.54545424,4292.24242381,4207.75757534,4400.42424198,2415.03030279,4195.90909049,1355.87878774,4939.78787829,3325.81818149,4449.36363592,737.696969623,42.0,42.0,?
2017-08-01 19:36:46.200069,4575.57575712,3770.90909053,4107.81818141,0.0,3831.1818178,3737.93939357,3805.93939356,325.575757543,4199.5151511,4183.03030261,4416.90909047,3873.93939355,4221.15151473,3136.24242393,4328.81818139,2546.90909065,5041.27272677,3078.54545424,4276.78787836,4207.75757534,4387.03030259,2415.03030279,4192.30302988,1355.87878774,4934.12121163,3325.81818149,4442.66666622,737.696969623,42.0,42.0,?
2017-08-01 19:36:46.209452,4575.0606056,3770.90909053,4109.87878747,0.0,3828.09090871,3737.93939357,3767.30302993,325.575757543,4197.96969655,4183.03030261,4410.72727229,3873.93939355,4219.60606018,3136.24242393,4322.12121169,2546.90909065,5051.06060556,3078.54545424,4269.06060563,4207.75757534,4384.96969653,2415.03030279,4188.18181776,1355.87878774,4934.63636314,3325.81818149,4438.5454541,737.696969623,42.0,42.0,?
2017-08-01 19:36:46.216184,4582.27272681,3770.90909053,4113.48484807,0.0,3836.84848446,3737.93939357,3762.15151478,325.575757543,4198.99999958,4183.03030261,4413.81818138,3873.93939355,4219.60606018,3136.24242393,4323.66666623,2546.90909065,5037.66666616,3078.54545424,4280.90909048,4207.75757534,4399.39393895,2415.03030279,4195.39393897,1355.87878774,4939.27272678,3325.81818149,4449.36363592,737.696969623,42.0,42.0,?
2017-08-01 19:36:46.224099,4579.69696924,3770.90909053,4109.36363595,0.0,3844.06060568,3737.93939357,3849.72727234,325.575757543,4200.03030261,4183.03030261,4419.99999956,3873.93939355,4211.87878746,3136.24242393,4323.66666623,2546.90909065,5021.69696919,3078.54545424,4289.15151472,4207.75757534,4406.09090865,2415.03030279,4198.99999958,1355.87878774,4934.12121163,3325.81818149,4452.45454501,737.696969623,42.0,42.0,?
2017-08-01 19:36:46.234120,4582.27272681,3770.90909053,4111.42424201,0.0,3835.30302992,3737.93939357,3859.51515113,325.575757543,4202.60606019,4183.03030261,4419.48484804,3873.93939355,4208.27272685,3136.24242393,4322.12121169,2546.90909065,5035.09090859,3078.54545424,4289.66666624,4207.75757534,4400.9393935,2415.03030279,4194.36363594,1355.87878774,4937.21212072,3325.81818149,4448.33333289,737.696969623,42.0,42.0,?
2017-08-01 19:36:46.240633,4579.69696924,3770.90909053,4109.87878747,0.0,3829.12121174,3737.93939357,3847.66666628,325.575757543,4205.69696928,4183.03030261,4420.51515107,3873.93939355,4213.424242,3136.24242393,4327.27272684,2546.90909065,5064.96969646,3078.54545424,4291.21212078,4207.75757534,4395.27272683,2415.03030279,4191.27272685,1355.87878774,4936.18181769,3325.81818149,4446.27272683,737.696969623,42.0,42.0,?
2017-08-01 19:36:46.247668,4579.18181772,3770.90909053,4110.39393898,0.0,3832.72727234,3737.93939357,3835.30302992,325.575757543,4207.75757534,4183.03030261,4434.42424198,3873.93939355,4228.36363594,3136.24242393,4341.18181775,2546.90909065,5078.36363586,3078.54545424,4295.84848442,4207.75757534,4402.99999956,2415.03030279,4193.33333291,1355.87878774,4938.24242375,3325.81818149,4455.03030258,737.696969623,42.0,42.0,?
2017-08-01 19:36:46.258831,4583.81818136,3770.90909053,4116.06060565,0.0,3828.60606022,3737.93939357,3775.54545417,325.575757543,4204.66666625,4183.03030261,4436.48484804,3873.93939355,4239.69696927,3136.24242393,4341.69696926,2546.90909065,5058.27272677,3078.54545424,4303.57575715,4207.75757534,4407.12121168,2415.03030279,4196.93939352,1355.87878774,4941.84848435,3325.81818149,4453.48484804,737.696969623,42.0,42.0,?
2017-08-01 19:36:46.264187,4575.57575712,3770.90909053,4111.93939353,0.0,3816.75757538,3737.93939357,3773.99999962,325.575757543,4202.09090867,4183.03030261,4421.03030259,3873.93939355,4230.424242,3136.24242393,4330.36363593,2546.90909065,5030.96969647,3078.54545424,4303.06060563,4207.75757534,4393.21212077,2415.03030279,4197.45454503,1355.87878774,4931.03030254,3325.81818149,4439.57575713,737.696969623,42.0,42.0,?
2017-08-01 19:36:46.273294,4577.12121166,3770.90909053,4111.42424201,0.0,3813.15151477,3737.93939357,3823.96969659,325.575757543,4209.8181814,4183.03030261,4423.60606016,3873.93939355,4222.69696927,3136.24242393,4332.42424199,2546.90909065,5033.03030253,3078.54545424,4299.45454502,4207.75757534,4391.15151471,2415.03030279,4195.39393897,1355.87878774,4931.54545405,3325.81818149,4441.12121168,737.696969623,42.0,42.0,?
2017-08-01 19:36:46.279654,4579.69696924,3770.90909053,4110.39393898,0.0,3816.75757538,3737.93939357,3828.60606022,325.575757543,4218.57575715,4183.03030261,4439.06060562,3873.93939355,4234.03030261,3136.24242393,4345.81818138,2546.90909065,5060.84848434,3078.54545424,4305.63636321,4207.75757534,4398.36363592,2415.03030279,4193.33333291,1355.87878774,4936.6969692,3325.81818149,4442.15151471,737.696969623,42.0,42.0,?
2017-08-01 19:36:46.286077,4575.57575712,3770.90909053,4109.36363595,0.0,3818.81818144,3737.93939357,3850.24242386,325.575757543,4215.99999958,4183.03030261,4436.48484804,3873.93939355,4241.75757533,3136.24242393,4346.3333329,2546.90909065,5071.15151464,3078.54545424,4310.78787836,4207.75757534,4392.69696926,2415.03030279,4195.90909049,1355.87878774,4934.12121163,3325.81818149,4437.51515107,737.696969623,42.0,42.0,?
2017-08-01 19:36:46.294656,4577.12121166,3770.90909053,4109.36363595,0.0,3817.27272689,3737.93939357,3862.60606022,325.575757543,4211.87878746,4183.03030261,4432.36363592,3873.93939355,4235.57575715,3136.24242393,4338.60606017,2546.90909065,5051.06060556,3078.54545424,4312.3333329,4207.75757534,4387.03030259,2415.03030279,4199.5151511,1355.87878774,4933.60606011,3325.81818149,4442.66666622,737.696969623,42.0,42.0,?
2017-08-01 19:36:46.302502,4574.54545409,3770.90909053,4105.24242383,0.0,3819.33333295,3737.93939357,3787.39393902,325.575757543,4212.90909049,4183.03030261,4438.03030259,3873.93939355,4236.09090867,3136.24242393,4345.81818138,2546.90909065,5050.54545404,3078.54545424,4312.3333329,4207.75757534,4391.15151471,2415.03030279,4195.39393897,1355.87878774,4934.12121163,3325.81818149,4448.8484844,737.696969623,42.0,42.0,?
2017-08-01 19:36:46.310110,4579.18181772,3770.90909053,4111.42424201,0.0,3826.03030265,3737.93939357,3759.06060568,325.575757543,4209.30302988,4183.03030261,4432.36363592,3873.93939355,4235.06060564,3136.24242393,4351.48484805,2546.90909065,5060.33333283,3078.54545424,4306.15151472,4207.75757534,4400.9393935,2415.03030279,4192.30302988,1355.87878774,4939.78787829,3325.81818149,4455.03030258,737.696969623,42.0,42.0,?
2017-08-01 19:36:46.319861,4579.69696924,3770.90909053,4112.45454504,0.0,3827.57575719,3737.93939357,3837.36363598,325.575757543,4209.30302988,4183.03030261,4425.15151471,3873.93939355,4220.63636321,3136.24242393,4338.60606017,2546.90909065,5036.12121162,3078.54545424,4310.78787836,4207.75757534,4401.96969653,2415.03030279,4194.87878746,1355.87878774,4936.6969692,3325.81818149,4455.5454541,737.696969623,42.0,42.0,?
2017-08-01 19:36:46.327094,4575.0606056,3787.39393902,4107.81818141,0.0,3821.90909053,3737.93939357,3863.12121173,325.575757543,4217.03030261,4183.03030261,4429.78787834,3873.93939355,4214.45454503,3136.24242393,4328.81818139,2546.90909065,5026.33333283,3078.54545424,4322.6363632,4207.75757534,4393.72727229,2415.03030279,4195.39393897,1355.87878774,4931.54545405,3325.81818149,4453.99999955,737.696969623,42.0,42.0,?
2017-08-01 19:36:46.333023,4579.18181772,3787.39393902,4110.9090905,4.1212121208,3809.54545416,3737.93939357,3837.36363598,325.575757543,4214.96969655,4183.03030261,4430.81818138,3873.93939355,4219.60606018,3136.24242393,4335.51515108,2546.90909065,5047.45454495,3078.54545424,4310.27272684,4207.75757534,4389.60606017,2415.03030279,4189.72727231,1355.87878774,4937.21212072,3325.81818149,4455.5454541,737.696969623,42.0,42.0,?
2017-08-01 19:36:46.343181,4573.51515106,3787.39393902,4108.33333292,4.1212121208,3796.66666629,3737.93939357,3839.42424204,325.575757543,4205.18181776,4183.03030261,4425.66666622,3873.93939355,4219.09090867,3136.24242393,4348.39393896,2546.90909065,5046.42424192,3078.54545424,4289.66666624,4207.75757534,4384.96969653,2415.03030279,4185.60606019,1355.87878774,4932.06060557,3325.81818149,4446.78787834,737.696969623,42.0,42.0,?
2017-08-01 19:36:46.349099,4575.0606056,3787.39393902,4109.36363595,4.1212121208,3799.75757538,3725.5757572,3818.81818144,325.575757543,4201.57575716,4183.03030261,4424.12121168,3873.93939355,4215.99999958,3136.24242393,4349.9393935,2546.90909065,5041.78787828,3078.54545424,4295.84848442,4207.75757534,4383.42424199,2415.03030279,4192.30302988,1355.87878774,4929.99999951,3325.81818149,4446.78787834,737.696969623,42.0,42.0,?
2017-08-01 19:36:46.357227,4581.24242378,3787.39393902,4110.39393898,4.1212121208,3817.27272689,3725.5757572,3789.45454508,296.727272698,4206.21212079,4183.03030261,4424.12121168,3873.93939355,4220.1212117,3136.24242393,4339.6363632,2546.90909065,5059.81818131,3078.54545424,4311.30302987,4207.75757534,4388.57575714,2415.03030279,4200.03030261,1355.87878774,4935.66666617,3325.81818149,4456.06060561,737.696969623,42.0,42.0,?
2017-08-01 19:36:46.365535,4580.21212075,3787.39393902,4107.30302989,4.1212121208,3824.4848481,3725.5757572,3809.03030265,296.727272698,4209.8181814,4183.03030261,4425.66666622,3873.93939355,4223.7272723,3136.24242393,4336.0303026,2546.90909065,5058.78787828,3078.54545424,4314.90909048,4207.75757534,4395.78787835,2415.03030279,4203.63636322,1355.87878774,4936.6969692,3325.81818149,4456.06060561,737.696969623,42.0,42.0,?
2017-08-01 19:36:46.372078,4584.33333287,3787.39393902,4109.87878747,4.1212121208,3818.81818144,3725.5757572,3831.69696931,296.727272698,4209.30302988,4183.03030261,4425.66666622,3886.30302991,4219.60606018,3136.24242393,4341.69696926,2546.90909065,5043.84848434,3078.54545424,4323.15151472,4207.75757534,4403.51515107,2415.03030279,4203.1212117,1355.87878774,4939.27272678,3325.81818149,4460.18181774,737.696969623,42.0,42.0,?
2017-08-01 19:36:46.381723,4577.63636318,3787.39393902,4109.87878747,4.1212121208,3816.75757538,3725.5757572,3862.60606022,296.727272698,4211.36363594,4183.03030261,4416.90909047,3886.30302991,4210.33333291,3140.36363605,4337.06060563,2546.90909065,5046.42424192,3078.54545424,4322.6363632,4207.75757534,4399.39393895,2415.03030279,4195.90909049,1355.87878774,4932.06060557,3325.81818149,4459.15151471,737.696969623,42.0,42.0,?
2017-08-01 19:36:46.388810,4573.51515106,3787.39393902,4112.45454504,4.1212121208,3814.1818178,3725.5757572,3856.42424204,296.727272698,4207.24242382,4183.03030261,4415.36363592,3886.30302991,4203.63636322,3140.36363605,4323.15151472,2551.03030278,5043.33333283,3078.54545424,4294.81818139,4207.75757534,4384.96969653,2415.03030279,4190.24242382,1355.87878774,4928.45454496,3325.81818149,4450.90909046,737.696969623,42.0,42.0,?
2017-08-01 19:36:46.399376,4574.54545409,3787.39393902,4110.39393898,4.1212121208,3817.78787841,3725.5757572,3756.99999962,296.727272698,4197.96969655,4183.03030261,4423.09090865,3886.30302991,4207.24242382,3140.36363605,4322.6363632,2551.03030278,5035.09090859,2942.54545425,4277.81818139,4207.75757534,4379.81818138,2415.03030279,4190.24242382,1355.87878774,4931.54545405,3325.81818149,4450.39393895,737.696969623,42.0,42.0,?
2017-08-01 19:36:46.404089,4564.7575753,3787.39393902,4105.75757535,4.1212121208,3823.96969659,3725.5757572,3754.42424205,296.727272698,4200.54545413,4183.03030261,4411.2424238,3886.30302991,4199.5151511,3140.36363605,4322.6363632,2551.03030278,5011.39393889,2942.54545425,4287.60606018,4199.5151511,4379.30302987,2415.03030279,4191.27272685,1355.87878774,4926.3939389,3325.81818149,4453.48484804,737.696969623,42.0,42.0,?
2017-08-01 19:36:46.413634,4565.78787833,3787.39393902,4111.93939353,4.1212121208,3817.27272689,3725.5757572,3859.51515113,296.727272698,4205.69696928,4183.03030261,4395.27272683,3886.30302991,4174.78787837,3140.36363605,4310.27272684,2551.03030278,4986.66666617,2942.54545425,4294.81818139,4199.5151511,4381.87878744,2406.78787855,4191.78787837,1355.87878774,4926.90909042,3325.81818149,4460.18181774,737.696969623,42.0,42.0,?
2017-08-01 19:36:46.419179,4572.99999954,3787.39393902,4109.36363595,4.1212121208,3818.30302992,3725.5757572,3860.03030264,296.727272698,4198.48484806,4183.03030261,4412.78787835,3886.30302991,4179.42424201,3140.36363605,4316.45454502,2551.03030278,5017.06060556,2942.54545425,4308.7272723,4199.5151511,4389.09090865,2406.78787855,4195.39393897,1359.99999986,4929.99999951,3325.81818149,4465.33333289,737.696969623,42.0,42.0,?
2017-08-01 19:36:46.427233,4577.63636318,3787.39393902,4106.27272686,4.1212121208,3831.69696931,3725.5757572,3799.24242386,296.727272698,4194.87878746,4183.03030261,4428.75757531,3886.30302991,4211.36363594,3140.36363605,4336.0303026,2551.03030278,5056.21212071,2942.54545425,4324.18181775,4199.5151511,4393.21212077,2406.78787855,4198.48484806,1359.99999986,4936.18181769,3284.60606028,4467.90909046,737.696969623,42.0,42.0,?
2017-08-01 19:36:46.437191,4574.54545409,3787.39393902,4111.42424201,4.1212121208,3828.60606022,3725.5757572,3805.42424204,296.727272698,4204.66666625,4183.03030261,4416.39393895,3886.30302991,4215.48484806,3140.36363605,4332.42424199,2551.03030278,5048.48484798,2942.54545425,4317.48484805,4191.27272685,4388.57575714,2406.78787855,4195.39393897,1359.99999986,4938.24242375,3284.60606028,4466.36363592,737.696969623,42.0,42.0,?
2017-08-01 19:36:46.443909,4567.84848439,3787.39393902,4112.45454504,4.1212121208,3820.36363598,3725.5757572,3824.4848481,296.727272698,4210.33333291,4183.03030261,4418.45454501,3886.30302991,4201.06060564,3140.36363605,4322.12121169,2551.03030278,5027.87878738,2942.54545425,4321.09090866,4191.27272685,4389.09090865,2410.90909067,4190.24242382,1359.99999986,4929.99999951,3284.60606028,4464.81818137,737.696969623,42.0,42.0,?
2017-08-01 19:36:46.452454,4577.63636318,3787.39393902,4113.99999959,4.1212121208,3827.57575719,3725.5757572,3835.30302992,296.727272698,4202.60606019,4183.03030261,4431.84848441,3886.30302991,4205.18181776,3140.36363605,4325.21212078,2551.03030278,5014.48484798,2942.54545425,4337.06060563,4191.27272685,4397.33333289,2410.90909067,4191.78787837,1359.99999986,4935.66666617,3284.60606028,4467.90909046,737.696969623,42.0,42.0,?
2017-08-01 19:36:46.460009,4578.15151469,3787.39393902,4107.30302989,4.1212121208,3832.72727234,3725.5757572,3836.84848446,296.727272698,4200.54545413,4183.03030261,4425.66666622,3886.30302991,4215.99999958,3140.36363605,4334.48484805,2551.03030278,5028.90909041,2942.54545425,4338.09090866,4191.27272685,4397.84848441,2410.90909067,4196.424242,1359.99999986,4936.6969692,3284.60606028,4461.21212077,737.696969623,42.0,42.0,?
2017-08-01 19:36:46.466709,4571.96969651,3787.39393902,4107.30302989,4.1212121208,3833.75757537,3725.5757572,3835.30302992,296.727272698,4209.8181814,4183.03030261,4417.9393935,3886.30302991,4211.36363594,3140.36363605,4331.90909048,2551.03030278,5054.66666616,2942.54545425,4341.18181775,4191.27272685,4395.27272683,2410.90909067,4195.90909049,1359.99999986,4932.06060557,3284.60606028,4457.09090865,737.696969623,42.0,42.0,?
2017-08-01 19:36:46.474533,4576.09090863,3787.39393902,4115.03030262,4.1212121208,3839.42424204,3725.5757572,3868.27272689,296.727272698,4208.27272685,4183.03030261,4421.03030259,3886.30302991,4203.63636322,3140.36363605,4322.12121169,2551.03030278,5045.39393889,2942.54545425,4338.09090866,4191.27272685,4397.33333289,2410.90909067,4193.84848443,1359.99999986,4936.18181769,3284.60606028,4464.30302986,737.696969623,42.0,42.0,?
2017-08-01 19:36:46.485136,4575.57575712,3787.39393902,4110.39393898,4.1212121208,3847.15151477,3725.5757572,3850.75757537,296.727272698,4201.57575716,4183.03030261,4425.66666622,3886.30302991,4205.69696928,3140.36363605,4324.69696926,2551.03030278,5038.69696919,2942.54545425,4322.12121169,4191.27272685,4402.99999956,2410.90909067,4197.45454503,1359.99999986,4934.63636314,3284.60606028,4469.45454501,737.696969623,42.0,42.0,?
2017-08-01 19:36:46.491842,4581.24242378,3787.39393902,4110.39393898,4.1212121208,3841.4848481,3725.5757572,3781.72727235,296.727272698,4211.87878746,4183.03030261,4424.63636319,3886.30302991,4210.84848443,3140.36363605,4324.18181775,2551.03030278,5043.84848434,2942.54545425,4326.75757532,4191.27272685,4405.06060562,2410.90909067,4202.60606019,1359.99999986,4937.21212072,3284.60606028,4472.5454541,737.696969623,42.0,42.0,?
2017-08-01 19:36:46.500598,4578.15151469,3787.39393902,4109.36363595,4.1212121208,3836.33333295,3725.5757572,3799.75757538,296.727272698,4221.15151473,4183.03030261,4422.06060562,3886.30302991,4217.03030261,3140.36363605,4319.54545411,2551.03030278,5030.96969647,2942.54545425,4346.84848441,4191.27272685,4397.84848441,2410.90909067,4199.5151511,1359.99999986,4935.15151466,3284.60606028,4465.8484844,737.696969623,42.0,42.0,?
2017-08-01 19:36:46.505328,4574.03030257,3787.39393902,4107.30302989,4.1212121208,3850.75757537,3725.5757572,3872.39393901,296.727272698,4209.30302988,4183.03030261,4427.72727228,3886.30302991,4226.8181814,3140.36363605,4339.12121169,2551.03030278,5043.33333283,2942.54545425,4361.78787835,4191.27272685,4404.03030259,2410.90909067,4197.96969655,1359.99999986,4933.60606011,3284.60606028,4465.8484844,737.696969623,42.0,42.0,?
2017-08-01 19:36:46.514243,4583.81818136,3787.39393902,4111.93939353,4.1212121208,3859.51515113,3725.5757572,3868.27272689,296.727272698,4205.18181776,4183.03030261,4432.36363592,3886.30302991,4221.66666624,3140.36363605,4353.03030259,2551.03030278,5071.15151464,2942.54545425,4369.51515108,4191.27272685,4419.48484804,2410.90909067,4202.09090867,1359.99999986,4939.78787829,3284.60606028,4476.66666622,737.696969623,42.0,42.0,?
2017-08-01 19:36:46.522169,4576.60606015,3787.39393902,4109.87878747,4.1212121208,3853.33333295,3725.5757572,3832.72727234,296.727272698,4218.57575715,4183.03030261,4427.72727228,3886.30302991,4203.63636322,3140.36363605,4338.60606017,2551.03030278,5063.42424192,2942.54545425,4359.21212078,4191.27272685,4409.18181774,2410.90909067,4199.5151511,1359.99999986,4932.06060557,3284.60606028,4473.06060561,737.696969623,42.0,42.0,?
2017-08-01 19:36:46.529913,4574.54545409,3787.39393902,4112.45454504,4.1212121208,3855.39393901,3725.5757572,3851.27272689,296.727272698,4218.57575715,4183.03030261,4425.66666622,3886.30302991,4204.15151473,3140.36363605,4331.39393896,2551.03030278,5045.9090904,2942.54545425,4346.3333329,4191.27272685,4398.87878744,2410.90909067,4197.45454503,1359.99999986,4932.57575708,3284.60606028,4468.42424198,737.696969623,42.0,42.0,?
2017-08-01 19:36:46.537678,4582.27272681,3787.39393902,4112.96969656,4.1212121208,3866.21212083,3725.5757572,3854.87878749,296.727272698,4207.75757534,4183.03030261,4427.72727228,3886.30302991,4219.09090867,3140.36363605,4338.60606017,2551.03030278,5048.48484798,2942.54545425,4361.78787835,4191.27272685,4406.60606017,2410.90909067,4203.63636322,1359.99999986,4940.30302981,3284.60606028,4469.45454501,737.696969623,42.0,42.0,?
2017-08-01 19:36:46.546340,4578.15151469,3787.39393902,4107.81818141,4.1212121208,3864.15151477,3725.5757572,3840.96969659,296.727272698,4210.33333291,4183.03030261,4430.30302986,3886.30302991,4223.21212079,3140.36363605,4336.0303026,2551.03030278,5053.12121162,2942.54545425,4364.36363593,4191.27272685,4404.54545411,2410.90909067,4203.63636322,1359.99999986,4935.15151466,3284.60606028,4467.90909046,737.696969623,42.0,42.0,?
2017-08-01 19:36:46.552887,4577.12121166,3787.39393902,4109.36363595,4.1212121208,3855.90909052,3725.5757572,3875.4848481,296.727272698,4214.45454503,4183.03030261,4438.03030259,3886.30302991,4217.54545412,3140.36363605,4333.96969654,2551.03030278,5055.69696919,2942.54545425,4327.78787836,4191.27272685,4394.75757532,2410.90909067,4195.90909049,1359.99999986,4933.60606011,3284.60606028,4469.96969652,737.696969623,42.0,42.0,?
2017-08-01 19:36:46.561696,4575.0606056,3787.39393902,4107.81818141,4.1212121208,3861.06060567,3725.5757572,3861.57575719,296.727272698,4216.51515109,4183.03030261,4439.06060562,3886.30302991,4211.87878746,3140.36363605,4337.06060563,2551.03030278,5052.6060601,2942.54545425,4318.51515108,4191.27272685,4393.72727229,2410.90909067,4198.99999958,1359.99999986,4933.0909086,3284.60606028,4470.48484804,737.696969623,42.0,42.0,?
2017-08-01 19:36:46.569063,4578.66666621,3787.39393902,4110.9090905,4.1212121208,3866.72727234,3725.5757572,3742.06060569,296.727272698,4220.63636321,4183.03030261,4426.18181774,3886.30302991,4210.84848443,3140.36363605,4333.45454502,2551.03030278,5048.9999995,2942.54545425,4341.69696926,4191.27272685,4404.03030259,2410.90909067,4206.72727231,1359.99999986,4936.6969692,3284.60606028,4474.09090864,737.696969623,42.0,42.0,?
2017-08-01 19:36:46.576602,4578.15151469,3787.39393902,4113.48484807,4.1212121208,3861.57575719,3725.5757572,3769.36363599,296.727272698,4219.60606018,4183.03030261,4428.2424238,3886.30302991,4215.99999958,3140.36363605,4336.54545411,2551.03030278,5052.6060601,2942.54545425,4345.81818138,4191.27272685,4404.54545411,2410.90909067,4202.60606019,1359.99999986,4934.63636314,3284.60606028,4473.06060561,737.696969623,42.0,42.0,?
2017-08-01 19:36:46.584171,4567.33333288,3787.39393902,4108.33333292,4.1212121208,3851.27272689,3725.5757572,3924.42424203,296.727272698,4212.90909049,4183.03030261,4440.60606016,3886.30302991,4210.33333291,3140.36363605,4344.27272684,2551.03030278,5044.87878737,2942.54545425,4338.09090866,4191.27272685,4393.72727229,2410.90909067,4195.39393897,1359.99999986,4925.87878739,3284.60606028,4460.69696925,737.696969623,42.0,42.0,?
2017-08-01 19:36:46.591951,4572.99999954,3787.39393902,4108.84848444,4.1212121208,3848.69696931,3725.5757572,3903.81818143,296.727272698,4209.8181814,4183.03030261,4434.42424198,3886.30302991,4196.424242,3140.36363605,4341.18181775,2551.03030278,5025.81818132,2942.54545425,4336.54545411,4191.27272685,4396.81818138,2410.90909067,4195.90909049,1359.99999986,4934.63636314,3284.60606028,4457.60606016,737.696969623,42.0,42.0,?
2017-08-01 19:36:46.602650,4578.66666621,3787.39393902,4108.84848444,4.1212121208,3854.36363598,3725.5757572,3828.09090871,296.727272698,4214.96969655,4183.03030261,4425.15151471,3886.30302991,4203.63636322,3140.36363605,4342.72727229,2551.03030278,5042.3030298,2942.54545425,4339.12121169,4191.27272685,4403.51515107,2410.90909067,4200.54545413,1359.99999986,4937.72727223,3284.60606028,4458.63636319,737.696969623,42.0,42.0,?
2017-08-01 19:36:46.607412,4579.18181772,3787.39393902,4109.36363595,4.1212121208,3857.96969658,3725.5757572,3829.12121174,296.727272698,4215.48484806,4183.03030261,4427.21212077,3886.30302991,4218.06060564,3140.36363605,4349.9393935,2551.03030278,5079.39393889,2942.54545425,4348.39393896,4191.27272685,4404.54545411,2410.90909067,4206.21212079,1359.99999986,4935.15151466,3284.60606028,4459.66666622,737.696969623,42.0,42.0,?
2017-08-01 19:36:46.615109,4579.18181772,3787.39393902,4112.45454504,4.1212121208,3861.57575719,3725.5757572,3799.24242386,296.727272698,4210.84848443,4183.03030261,4427.21212077,3886.30302991,4214.45454503,3140.36363605,4343.24242381,2551.03030278,5066.51515101,2942.54545425,4354.57575714,4191.27272685,4410.21212077,2410.90909067,4204.66666625,1359.99999986,4938.24242375,3284.60606028,4465.33333289,737.696969623,42.0,42.0,?
2017-08-01 19:36:46.625178,4572.99999954,3787.39393902,4109.87878747,4.1212121208,3868.7878784,3725.5757572,3821.90909053,296.727272698,4211.87878746,4183.03030261,4432.87878744,3886.30302991,4205.69696928,3140.36363605,4332.93939351,2551.03030278,5038.18181768,2942.54545425,4343.24242381,4191.27272685,4409.18181774,2410.90909067,4200.03030261,1359.99999986,4933.0909086,3284.60606028,4467.39393895,737.696969623,42.0,42.0,?
2017-08-01 19:36:46.634907,4578.15151469,3787.39393902,4113.48484807,4.1212121208,3875.4848481,3725.5757572,3929.06060567,296.727272698,4212.90909049,4183.03030261,4440.60606016,3886.30302991,4200.03030261,3140.36363605,4334.48484805,2551.03030278,5046.42424192,2942.54545425,4341.69696926,4191.27272685,4404.54545411,2410.90909067,4204.15151473,1359.99999986,4935.66666617,3284.60606028,4469.45454501,737.696969623,42.0,42.0,?
2017-08-01 19:36:46.640394,4577.12121166,3787.39393902,4110.9090905,4.1212121208,3880.63636325,3725.5757572,3884.75757537,296.727272698,4208.27272685,4183.03030261,4430.30302986,3886.30302991,4206.72727231,3140.36363605,4344.78787835,2551.03030278,5065.99999949,2942.54545425,4355.60606017,4191.27272685,4403.51515107,2410.90909067,4204.15151473,1359.99999986,4936.6969692,3284.60606028,4467.90909046,737.696969623,42.0,42.0,?
2017-08-01 19:36:46.646788,4573.51515106,3787.39393902,4107.81818141,4.1212121208,3880.63636325,3725.5757572,3741.03030266,296.727272698,4203.63636322,4183.03030261,4417.9393935,3886.30302991,4217.03030261,3140.36363605,4349.42424199,2551.03030278,5056.72727222,2942.54545425,4344.27272684,4191.27272685,4400.42424198,2410.90909067,4197.96969655,1359.99999986,4932.57575708,3284.60606028,4466.87878743,737.696969623,42.0,42.0,?
2017-08-01 19:36:46.654052,4580.72727227,3787.39393902,4112.96969656,4.1212121208,3870.84848446,3725.5757572,3790.99999962,296.727272698,4202.60606019,4183.03030261,4426.69696925,3886.30302991,4209.8181814,3140.36363605,4341.18181775,2551.03030278,5033.54545404,2942.54545425,4319.0303026,4191.27272685,4398.87878744,2410.90909067,4198.99999958,1359.99999986,4934.63636314,3284.60606028,4467.90909046,737.696969623,42.0,42.0,?
2017-08-01 19:36:46.663023,4575.57575712,3787.39393902,4112.96969656,4.1212121208,3863.63636325,3725.5757572,3892.99999961,296.727272698,4206.72727231,4183.03030261,4438.5454541,3886.30302991,4205.69696928,3140.36363605,4334.99999957,2551.03030278,5044.87878737,2942.54545425,4313.87878745,4191.27272685,4396.81818138,2410.90909067,4201.57575716,1359.99999986,4928.96969648,3284.60606028,4458.12121168,737.696969623,42.0,42.0,?
2017-08-01 19:36:46.670128,4571.454545,3787.39393902,4113.99999959,4.1212121208,3862.60606022,3725.5757572,3840.96969659,296.727272698,4213.424242,4183.03030261,4434.9393935,3886.30302991,4208.27272685,3140.36363605,4334.48484805,2551.03030278,5063.93939343,2942.54545425,4311.81818139,4191.27272685,4391.66666623,2410.90909067,4198.99999958,1359.99999986,4928.96969648,3284.60606028,4456.57575713,737.696969623,42.0,42.0,?
2017-08-01 19:36:46.677984,4573.51515106,3787.39393902,4109.87878747,4.1212121208,3864.66666628,3725.5757572,3805.42424204,296.727272698,4212.90909049,4183.03030261,4427.72727228,3886.30302991,4198.48484806,3140.36363605,4338.09090866,2551.03030278,5052.09090859,2942.54545425,4311.30302987,4191.27272685,4392.69696926,2410.90909067,4198.48484806,1359.99999986,4933.0909086,3284.60606028,4467.39393895,737.696969623,42.0,42.0,?
2017-08-01 19:36:46.685074,4572.48484803,3787.39393902,4107.30302989,4.1212121208,3865.1818178,3725.5757572,3896.60606022,296.727272698,4203.63636322,4183.03030261,4425.15151471,3886.30302991,4190.24242382,3140.36363605,4334.99999957,2551.03030278,5039.21212071,2942.54545425,4317.48484805,4191.27272685,4398.87878744,2410.90909067,4202.09090867,1359.99999986,4929.99999951,3284.60606028,4467.90909046,737.696969623,42.0,42.0,?
2017-08-01 19:36:46.693668,4576.60606015,3787.39393902,4113.48484807,4.1212121208,3867.24242386,3725.5757572,3905.87878749,296.727272698,4198.99999958,4183.03030261,4424.63636319,3886.30302991,4195.39393897,3140.36363605,4325.21212078,2551.03030278,5045.39393889,2942.54545425,4319.0303026,4191.27272685,4401.96969653,2410.90909067,4204.15151473,1359.99999986,4932.57575708,3284.60606028,4462.75757531,737.696969623,42.0,42.0,?
2017-08-01 19:36:46.701805,4576.60606015,3787.39393902,4109.87878747,4.1212121208,3879.60606022,3725.5757572,3798.72727235,296.727272698,4206.21212079,4183.03030261,4425.66666622,3886.30302991,4205.18181776,3140.36363605,4334.48484805,2551.03030278,5054.66666616,2942.54545425,4328.30302987,4191.27272685,4402.99999956,2410.90909067,4204.66666625,1359.99999986,4933.0909086,3284.60606028,4463.78787834,737.696969623,42.0,42.0,?
2017-08-01 19:36:46.711262,4579.18181772,3787.39393902,4108.84848444,4.1212121208,3882.69696931,3725.5757572,3801.30302992,296.727272698,4213.93939352,4183.03030261,4424.63636319,3886.30302991,4208.27272685,3140.36363605,4350.96969653,2551.03030278,5061.87878737,2942.54545425,4331.39393896,4191.27272685,4403.51515107,2410.90909067,4202.60606019,1359.99999986,4933.60606011,3284.60606028,4465.33333289,737.696969623,42.0,42.0,?
2017-08-01 19:36:46.717771,4576.60606015,3787.39393902,4110.9090905,4.1212121208,3869.81818143,3725.5757572,3889.90909052,296.727272698,4210.33333291,4183.03030261,4423.60606016,3886.30302991,4206.21212079,3140.36363605,4347.87878744,2551.03030278,5060.84848434,2942.54545425,4321.09090866,4191.27272685,4396.81818138,2410.90909067,4198.48484806,1359.99999986,4932.06060557,3284.60606028,4459.66666622,737.696969623,42.0,42.0,?
2017-08-01 19:36:46.725932,4570.42424197,3787.39393902,4110.9090905,4.1212121208,3869.30302992,3725.5757572,3915.66666628,296.727272698,4202.60606019,4183.03030261,4424.12121168,3886.30302991,4205.18181776,3140.36363605,4342.72727229,2551.03030278,5053.63636313,2942.54545425,4331.39393896,4191.27272685,4394.75757532,2410.90909067,4200.03030261,1359.99999986,4928.96969648,3284.60606028,4459.15151471,737.696969623,42.0,42.0,?
2017-08-01 19:36:46.733435,4577.12121166,3787.39393902,4112.45454504,4.1212121208,3879.60606022,3725.5757572,3822.93939356,296.727272698,4196.93939352,4183.03030261,4412.78787835,3886.30302991,4195.39393897,3140.36363605,4342.21212078,2551.03030278,5052.09090859,2942.54545425,4344.78787835,4191.27272685,4404.03030259,2410.90909067,4203.1212117,1359.99999986,4933.0909086,3284.60606028,4470.99999955,737.696969623,42.0,42.0,?
2017-08-01 19:36:46.744503,4571.96969651,3787.39393902,4107.30302989,4.1212121208,3880.63636325,3725.5757572,3745.66666629,296.727272698,4192.8181814,4183.03030261,4398.87878744,3886.30302991,4181.48484807,3140.36363605,4329.84848442,2551.03030278,5046.93939343,2942.54545425,4329.84848442,4191.27272685,4400.9393935,2410.90909067,4199.5151511,1359.99999986,4927.93939345,3284.60606028,4470.99999955,737.696969623,42.0,42.0,?
2017-08-01 19:36:46.749064,4569.39393894,3787.39393902,4109.36363595,4.1212121208,3875.4848481,3725.5757572,3836.84848446,296.727272698,4192.30302988,4183.03030261,4405.06060562,3886.30302991,4177.36363595,3140.36363605,4321.09090866,2551.03030278,5040.75757525,2942.54545425,4316.96969654,4191.27272685,4393.21212077,2410.90909067,4200.54545413,1359.99999986,4928.96969648,3284.60606028,4470.48484804,737.696969623,42.0,42.0,?
2017-08-01 19:36:46.763573,4579.69696924,3787.39393902,4112.96969656,4.1212121208,3879.0909087,3725.5757572,3913.60606021,296.727272698,4199.5151511,4183.03030261,4425.15151471,3886.30302991,4186.1212117,3140.36363605,4336.0303026,2551.03030278,5036.63636313,2942.54545425,4341.18181775,4191.27272685,4401.45454501,2410.90909067,4208.78787837,1359.99999986,4935.15151466,3284.60606028,4473.57575713,737.696969623,42.0,42.0,?
2017-08-01 19:36:46.766887,4575.57575712,3787.39393902,4109.36363595,4.1212121208,3878.57575719,3725.5757572,3844.06060568,296.727272698,4212.39393897,4183.03030261,4437.51515107,3886.30302991,4205.69696928,3140.36363605,4347.87878744,2551.03030278,5033.03030253,2942.54545425,4356.6363632,4191.27272685,4406.60606017,2410.90909067,4205.69696928,1359.99999986,4930.51515102,3284.60606028,4466.36363592,737.696969623,42.0,42.0,?
2017-08-01 19:36:46.771040,4571.454545,3787.39393902,4111.93939353,4.1212121208,3870.33333295,3725.5757572,3820.36363598,296.727272698,4213.424242,4183.03030261,4431.33333289,3886.30302991,4215.99999958,3140.36363605,4343.75757532,2551.03030278,5051.06060556,2942.54545425,4327.27272684,4191.27272685,4396.81818138,2410.90909067,4196.93939352,1359.99999986,4929.48484799,3284.60606028,4465.33333289,737.696969623,42.0,42.0,?
2017-08-01 19:36:46.781858,4569.39393894,3787.39393902,4111.42424201,4.1212121208,3860.54545416,3725.5757572,3896.0909087,296.727272698,4208.27272685,4183.03030261,4419.48484804,3886.30302991,4202.60606019,3140.36363605,4340.15151472,2551.03030278,5070.12121161,2942.54545425,4293.27272684,4191.27272685,4382.39393896,2410.90909067,4194.87878746,1359.99999986,4926.3939389,3284.60606028,4461.21212077,737.696969623,42.0,42.0,?
2017-08-01 19:36:46.787486,4573.51515106,3787.39393902,4110.9090905,4.1212121208,3854.36363598,3725.5757572,3850.24242386,296.727272698,4205.18181776,4183.03030261,4419.48484804,3886.30302991,4190.24242382,3140.36363605,4343.24242381,2551.03030278,5050.54545404,2942.54545425,4295.84848442,4191.27272685,4387.03030259,2410.90909067,4199.5151511,1359.99999986,4927.42424193,3284.60606028,4458.12121168,737.696969623,42.0,42.0,?
2017-08-01 19:36:46.795912,4578.15151469,3787.39393902,4111.93939353,4.1212121208,3856.42424204,3725.5757572,3761.12121175,296.727272698,4198.99999958,4183.03030261,4423.60606016,3886.30302991,4192.30302988,3140.36363605,4345.81818138,2551.03030278,5025.81818132,2942.54545425,4314.90909048,4191.27272685,4402.48484804,2410.90909067,4203.63636322,1359.99999986,4933.0909086,3284.60606028,4464.30302986,737.696969623,42.0,42.0,?
2017-08-01 19:36:46.804167,4571.454545,3787.39393902,4108.33333292,4.1212121208,3857.45454507,3725.5757572,3839.42424204,296.727272698,4196.424242,4183.03030261,4421.03030259,3886.30302991,4191.27272685,3140.36363605,4340.66666623,2551.03030278,5037.66666616,2942.54545425,4316.96969654,4191.27272685,4402.48484804,2410.90909067,4200.54545413,1359.99999986,4927.93939345,3284.60606028,4463.27272683,737.696969623,42.0,42.0,?
2017-08-01 19:36:46.812903,4576.09090863,3787.39393902,4112.96969656,4.1212121208,3853.33333295,3725.5757572,3903.30302991,296.727272698,4197.96969655,4183.03030261,4423.09090865,3886.30302991,4196.424242,3140.36363605,4341.18181775,2551.03030278,5056.21212071,2942.54545425,4316.96969654,4191.27272685,4402.48484804,2410.90909067,4196.424242,1359.99999986,4932.57575708,3284.60606028,4466.87878743,737.696969623,42.0,42.0,?
2017-08-01 19:36:46.818047,4575.57575712,3787.39393902,4112.45454504,4.1212121208,3851.27272689,3725.5757572,3837.87878749,296.727272698,4197.96969655,4183.03030261,4427.72727228,3886.30302991,4212.39393897,3140.36363605,4351.99999956,2551.03030278,5062.39393889,2942.54545425,4326.75757532,4191.27272685,4402.48484804,2410.90909067,4197.96969655,1359.99999986,4933.0909086,3284.60606028,4469.96969652,737.696969623,42.0,42.0,?
2017-08-01 19:36:46.826657,4570.93939348,3729.69696932,4110.39393898,4.1212121208,3854.36363598,3725.5757572,3788.42424205,296.727272698,4197.96969655,4183.03030261,4420.51515107,3886.30302991,4207.24242382,3140.36363605,4346.84848441,2551.03030278,5058.78787828,2942.54545425,4334.48484805,4191.27272685,4397.84848441,2410.90909067,4203.1212117,1359.99999986,4928.45454496,3284.60606028,4466.87878743,737.696969623,42.0,42.0,?
2017-08-01 19:36:46.834046,4576.09090863,3729.69696932,4112.45454504,4.1212121208,3857.96969658,3725.5757572,3825.51515113,296.727272698,4207.75757534,4183.03030261,4418.45454501,3886.30302991,4190.24242382,3140.36363605,4329.84848442,2551.03030278,5047.45454495,2942.54545425,4332.93939351,4191.27272685,4399.39393895,2410.90909067,4202.60606019,1359.99999986,4932.06060557,3284.60606028,4466.36363592,737.696969623,42.0,42.0,?
2017-08-01 19:36:46.847452,4572.99999954,3729.69696932,4107.81818141,4.1212121208,3861.57575719,3725.5757572,3868.27272689,296.727272698,4214.45454503,4183.03030261,4426.18181774,3886.30302991,4198.99999958,3140.36363605,4338.09090866,2551.03030278,5045.39393889,2942.54545425,4332.42424199,4191.27272685,4399.90909047,2410.90909067,4196.93939352,1359.99999986,4927.42424193,3284.60606028,4465.8484844,675.878787811,42.0,42.0,?
2017-08-01 19:36:46.850152,4573.51515106,3729.69696932,4109.87878747,4.1212121208,3864.66666628,3729.69696932,3835.30302992,296.727272698,4205.69696928,4183.03030261,4430.81818138,3886.30302991,4212.39393897,3140.36363605,4355.09090866,2551.03030278,5053.12121162,2942.54545425,4329.84848442,4191.27272685,4398.87878744,2410.90909067,4196.424242,1359.99999986,4928.45454496,3284.60606028,4466.87878743,675.878787811,42.0,42.0,?
2017-08-01 19:36:46.861721,4570.93939348,3729.69696932,4110.9090905,4.1212121208,3853.33333295,3729.69696932,3804.39393901,4183.03030261,4203.1212117,4183.03030261,4433.90909047,3886.30302991,4211.87878746,3140.36363605,4356.6363632,2551.03030278,5063.93939343,2942.54545425,4320.06060563,4191.27272685,4397.33333289,2410.90909067,4196.93939352,1359.99999986,4928.96969648,3284.60606028,4463.27272683,675.878787811,42.0,42.0,?
2017-08-01 19:36:46.865203,4567.84848439,3729.69696932,4109.36363595,4.1212121208,3840.45454507,3729.69696932,3843.54545416,4183.03030261,4210.33333291,4170.66666625,4440.60606016,3886.30302991,4217.54545412,3140.36363605,4355.09090866,2551.03030278,5066.51515101,2942.54545425,4322.12121169,4191.27272685,4400.42424198,2410.90909067,4197.96969655,1359.99999986,4926.90909042,3284.60606028,4460.69696925,675.878787811,42.0,42.0,?
2017-08-01 19:36:46.873122,4578.15151469,3729.69696932,4112.96969656,4.1212121208,3848.69696931,3729.69696932,3877.03030264,4183.03030261,4210.84848443,4170.66666625,4439.06060562,3878.06060567,4213.424242,3140.36363605,4341.18181775,2551.03030278,5050.03030253,2942.54545425,4314.90909048,4191.27272685,4408.15151471,2410.90909067,4200.03030261,1359.99999986,4932.57575708,3284.60606028,4469.45454501,675.878787811,42.0,42.0,?
2017-08-01 19:36:46.881689,4580.21212075,3729.69696932,4107.81818141,4.1212121208,3866.21212083,3729.69696932,3854.87878749,4183.03030261,4208.27272685,4170.66666625,4439.57575713,3878.06060567,4203.1212117,3140.36363605,4332.42424199,2551.03030278,5041.27272677,2942.54545425,4297.90909048,4191.27272685,4409.69696926,2410.90909067,4201.06060564,1359.99999986,4933.0909086,3284.60606028,4470.99999955,675.878787811,42.0,42.0,?
2017-08-01 19:36:46.890157,4579.69696924,3729.69696932,4107.81818141,4.1212121208,3867.24242386,3729.69696932,3832.21212083,4183.03030261,4206.21212079,4170.66666625,4449.87878743,3878.06060567,4220.1212117,3140.36363605,4349.9393935,2530.42424217,5075.78787828,2942.54545425,4312.3333329,4191.27272685,4409.69696926,2410.90909067,4201.06060564,1359.99999986,4935.66666617,3284.60606028,4470.48484804,675.878787811,42.0,42.0,?
2017-08-01 19:36:46.896352,4578.66666621,3729.69696932,4111.42424201,4.1212121208,3860.03030264,3729.69696932,3816.24242386,4183.03030261,4195.90909049,4170.66666625,4438.03030259,3878.06060567,4214.96969655,3140.36363605,4351.99999956,2530.42424217,5083.51515101,2946.66666637,4345.81818138,4191.27272685,4409.69696926,2410.90909067,4204.15151473,1359.99999986,4934.63636314,3284.60606028,4470.99999955,675.878787811,42.0,42.0,?
2017-08-01 19:36:46.908664,4573.51515106,3729.69696932,4109.87878747,4.1212121208,3864.15151477,3729.69696932,3800.78787841,4183.03030261,4195.39393897,4170.66666625,4420.51515107,3878.06060567,4176.84848443,3140.36363605,4333.96969654,2530.42424217,5044.87878737,2946.66666637,4351.99999956,4191.27272685,4414.33333289,2410.90909067,4209.8181814,1359.99999986,4930.51515102,3284.60606028,4470.99999955,675.878787811,42.0,42.0,?
2017-08-01 19:36:46.912795,4577.63636318,3729.69696932,4111.42424201,4.1212121208,3865.69696931,3729.69696932,3833.24242386,4183.03030261,4208.27272685,4170.66666625,4427.72727228,3878.06060567,4180.45454504,3140.36363605,4341.18181775,2530.42424217,5054.66666616,2946.66666637,4339.6363632,4191.27272685,4418.96969653,2419.15151491,4209.8181814,1359.99999986,4935.66666617,3284.60606028,4473.57575713,675.878787811,42.0,42.0,?
2017-08-01 19:36:46.921442,4575.0606056,3729.69696932,4108.33333292,4.1212121208,3865.1818178,3729.69696932,3872.39393901,4183.03030261,4211.87878746,4170.66666625,4435.96969653,3878.06060567,4218.57575715,3140.36363605,4363.84848441,2530.42424217,5093.81818131,2946.66666637,4341.18181775,4191.27272685,4413.30302986,2419.15151491,4206.21212079,1364.12121198,4932.06060557,3284.60606028,4470.48484804,675.878787811,42.0,42.0,?
2017-08-01 19:36:46.928065,4575.57575712,3729.69696932,4109.36363595,4.1212121208,3867.75757537,3729.69696932,3896.60606022,4183.03030261,4204.15151473,4170.66666625,4428.75757531,3878.06060567,4220.1212117,3140.36363605,4363.3333329,2530.42424217,5084.54545404,2946.66666637,4336.54545411,4191.27272685,4410.72727229,2419.15151491,4206.72727231,1364.12121198,4930.51515102,3268.12121179,4474.09090864,675.878787811,42.0,42.0,?
2017-08-01 19:36:46.937823,4579.18181772,3729.69696932,4111.42424201,4.1212121208,3863.63636325,3729.69696932,3891.96969658,4183.03030261,4202.09090867,4170.66666625,4423.60606016,3878.06060567,4206.72727231,3140.36363605,4351.99999956,2530.42424217,5065.48484798,2946.66666637,4324.18181775,4199.5151511,4410.21212077,2419.15151491,4206.21212079,1364.12121198,4931.03030254,3268.12121179,4474.09090864,675.878787811,42.0,42.0,?
2017-08-01 19:36:46.943140,4569.90909045,3729.69696932,4107.81818141,4.1212121208,3852.30302992,3729.69696932,3799.75757538,4183.03030261,4205.69696928,4170.66666625,4421.03030259,3878.06060567,4210.84848443,3140.36363605,4344.78787835,2530.42424217,5066.51515101,2946.66666637,4326.75757532,4199.5151511,4405.06060562,2415.03030279,4207.24242382,1364.12121198,4922.7878783,3268.12121179,4463.78787834,675.878787811,42.0,42.0,?
2017-08-01 19:36:46.951141,4570.42424197,3729.69696932,4111.42424201,4.1212121208,3847.66666628,3729.69696932,3739.99999963,4183.03030261,4202.09090867,4170.66666625,4423.60606016,3878.06060567,4215.48484806,3140.36363605,4334.48484805,2530.42424217,5057.24242374,2946.66666637,4326.75757532,4199.5151511,4405.06060562,2415.03030279,4207.24242382,1364.12121198,4927.42424193,3268.12121179,4466.36363592,675.878787811,42.0,42.0,?
2017-08-01 19:36:46.961102,4571.96969651,3729.69696932,4109.36363595,4.1212121208,3855.39393901,3729.69696932,3830.15151477,4183.03030261,4199.5151511,4170.66666625,4441.63636319,3878.06060567,4222.18181776,3140.36363605,4332.42424199,2530.42424217,5055.69696919,2946.66666637,4316.45454502,4199.5151511,4406.60606017,2415.03030279,4202.09090867,1364.12121198,4930.51515102,3268.12121179,4471.51515107,675.878787811,42.0,42.0,?
2017-08-01 19:36:46.967725,4572.99999954,3729.69696932,4109.36363595,4.1212121208,3855.90909052,3729.69696932,3896.60606022,4183.03030261,4206.21212079,4170.66666625,4448.8484844,3878.06060567,4220.1212117,3140.36363605,4337.06060563,2530.42424217,5053.12121162,2946.66666637,4306.15151472,4199.5151511,4404.03030259,2415.03030279,4203.1212117,1364.12121198,4927.93939345,3268.12121179,4468.42424198,675.878787811,42.0,42.0,?
2017-08-01 19:36:46.977533,4574.54545409,3729.69696932,4114.5151511,4.1212121208,3846.12121174,3729.69696932,3851.27272689,4183.03030261,4208.78787837,4170.66666625,4437.51515107,3878.06060567,4208.78787837,3140.36363605,4341.69696926,2530.42424217,5048.48484798,2946.66666637,4307.18181775,4199.5151511,4402.48484804,2415.03030279,4205.69696928,1364.12121198,4927.93939345,3268.12121179,4467.39393895,675.878787811,42.0,42.0,?
2017-08-01 19:36:46.984284,4566.30302985,3729.69696932,4109.36363595,4.1212121208,3845.60606022,3729.69696932,3832.21212083,4183.03030261,4203.1212117,4170.66666625,4433.39393895,3878.06060567,4202.09090867,3140.36363605,4345.81818138,2530.42424217,5074.24242374,2946.66666637,4316.45454502,4199.5151511,4401.45454501,2415.03030279,4203.63636322,1364.12121198,4924.33333284,3268.12121179,4468.42424198,675.878787811,42.0,42.0,?
2017-08-01 19:36:46.992798,4571.96969651,3729.69696932,4109.36363595,4.1212121208,3851.27272689,3729.69696932,3826.03030265,4183.03030261,4196.93939352,4170.66666625,4432.36363592,3878.06060567,4200.54545413,3140.36363605,4341.18181775,2530.42424217,5076.81818131,2946.66666637,4324.69696926,4199.5151511,4405.06060562,2415.03030279,4206.21212079,1364.12121198,4931.03030254,3268.12121179,4473.57575713,675.878787811,42.0,42.0,?
2017-08-01 19:36:46.998458,4576.09090863,3729.69696932,4110.39393898,4.1212121208,3852.30302992,3729.69696932,3806.96969659,4183.03030261,4196.93939352,4170.66666625,4425.15151471,3878.06060567,4200.03030261,3140.36363605,4336.0303026,2530.42424217,5063.42424192,2946.66666637,4325.21212078,4199.5151511,4408.15151471,2415.03030279,4206.21212079,1364.12121198,4932.06060557,3268.12121179,4472.03030258,675.878787811,42.0,42.0,?
2017-08-01 19:36:47.006408,4571.96969651,3729.69696932,4110.39393898,4.1212121208,3852.81818143,3729.69696932,3817.27272689,4183.03030261,4197.96969655,4170.66666625,4423.60606016,3878.06060567,4200.03030261,3140.36363605,4341.69696926,2530.42424217,5074.75757525,2946.66666637,4323.66666623,4199.5151511,4407.12121168,2415.03030279,4201.57575716,1364.12121198,4927.93939345,3268.12121179,4469.96969652,675.878787811,42.0,42.0,?
2017-08-01 19:36:47.017539,4571.96969651,3729.69696932,4112.96969656,4.1212121208,3844.06060568,3729.69696932,3847.66666628,4183.03030261,4200.54545413,4170.66666625,4422.06060562,3878.06060567,4200.03030261,3140.36363605,4342.21212078,2530.42424217,5068.06060555,2946.66666637,4319.0303026,4199.5151511,4401.96969653,2415.03030279,4200.03030261,1364.12121198,4928.45454496,3268.12121179,4470.99999955,675.878787811,42.0,42.0,?
2017-08-01 19:36:47.023001,4567.33333288,3729.69696932,4109.36363595,4.1212121208,3834.27272689,3729.69696932,3890.93939355,4183.03030261,4205.69696928,4170.66666625,4410.72727229,3878.06060567,4191.27272685,3140.36363605,4326.75757532,2530.42424217,5046.42424192,2946.66666637,4308.21212078,4199.5151511,4397.33333289,2415.03030279,4200.54545413,1364.12121198,4922.7878783,3268.12121179,4468.93939349,675.878787811,42.0,42.0,?
2017-08-01 19:36:47.032191,4574.54545409,3729.69696932,4113.48484807,4.1212121208,3840.45454507,3729.69696932,3865.69696931,4183.03030261,4204.66666625,4170.66666625,4410.72727229,3878.06060567,4185.60606019,3140.36363605,4319.54545411,2530.42424217,5045.9090904,2946.66666637,4310.27272684,4199.5151511,4406.60606017,2415.03030279,4200.54545413,1364.12121198,4927.42424193,3268.12121179,4473.57575713,675.878787811,42.0,42.0,?
2017-08-01 19:36:47.039223,4579.18181772,3729.69696932,4113.99999959,4.1212121208,3848.69696931,3729.69696932,3766.2727269,4183.03030261,4201.57575716,4170.66666625,4428.2424238,3878.06060567,4198.48484806,3140.36363605,4330.36363593,2530.42424217,5049.51515101,2946.66666637,4322.12121169,4199.5151511,4414.33333289,2415.03030279,4204.66666625,1364.12121198,4931.54545405,3268.12121179,4478.21212076,675.878787811,42.0,42.0,?
2017-08-01 19:36:47.045051,4570.42424197,3729.69696932,4109.87878747,4.1212121208,3845.60606022,3729.69696932,3782.24242386,4183.03030261,4205.18181776,4170.66666625,4435.45454501,3878.06060567,4212.90909049,3140.36363605,4337.57575714,2530.42424217,5065.99999949,2946.66666637,4313.36363593,4199.5151511,4407.12121168,2415.03030279,4205.69696928,1364.12121198,4927.42424193,3268.12121179,4474.60606016,675.878787811,42.0,42.0,?
2017-08-01 19:36:47.053187,4571.454545,3729.69696932,4111.93939353,4.1212121208,3839.93939356,3729.69696932,3868.7878784,4183.03030261,4202.60606019,4170.66666625,4429.27272683,3878.06060567,4209.30302988,3140.36363605,4335.51515108,2530.42424217,5084.03030252,2946.66666637,4307.18181775,4199.5151511,4402.48484804,2415.03030279,4207.24242382,1364.12121198,4931.54545405,3268.12121179,4470.99999955,675.878787811,42.0,42.0,?
2017-08-01 19:36:47.062127,4574.54545409,3729.69696932,4108.84848444,4.1212121208,3847.15151477,3729.69696932,3828.09090871,4183.03030261,4198.99999958,4170.66666625,4432.87878744,3878.06060567,4211.36363594,3140.36363605,4341.18181775,2530.42424217,5076.3030298,2946.66666637,4330.87878745,4199.5151511,4410.21212077,2415.03030279,4207.75757534,1364.12121198,4932.06060557,3268.12121179,4468.93939349,675.878787811,42.0,42.0,?
2017-08-01 19:36:47.073074,4580.21212075,3729.69696932,4110.39393898,4.1212121208,3857.45454507,3729.69696932,3823.45454507,4183.03030261,4198.99999958,4170.66666625,4433.90909047,3878.06060567,4217.03030261,3140.36363605,4344.27272684,2530.42424217,5078.36363586,2946.66666637,4326.24242381,4199.5151511,4415.87878744,2415.03030279,4201.57575716,1364.12121198,4929.48484799,3268.12121179,4474.60606016,675.878787811,42.0,42.0,?
2017-08-01 19:36:47.078804,4580.21212075,3729.69696932,4110.39393898,4.1212121208,3860.54545416,3729.69696932,3865.69696931,4183.03030261,4191.78787837,4170.66666625,4421.5454541,3878.06060567,4209.30302988,3140.36363605,4333.96969654,2530.42424217,5083.51515101,2946.66666637,4303.06060563,4199.5151511,4410.21212077,2415.03030279,4200.03030261,1364.12121198,4927.93939345,3268.12121179,4476.1515147,675.878787811,42.0,42.0,?
2017-08-01 19:36:47.084147,4573.51515106,3729.69696932,4106.27272686,4.1212121208,3859.51515113,3729.69696932,3781.72727235,4183.03030261,4185.09090867,4170.66666625,4418.45454501,3878.06060567,4206.72727231,3140.36363605,4327.27272684,2530.42424217,5060.33333283,2946.66666637,4322.6363632,4199.5151511,4410.72727229,2415.03030279,4204.66666625,1364.12121198,4926.3939389,3268.12121179,4471.51515107,675.878787811,42.0,42.0,?
2017-08-01 19:36:47.093585,4576.09090863,3729.69696932,4110.39393898,4.1212121208,3855.39393901,3729.69696932,3762.66666629,4183.03030261,4187.66666625,4170.66666625,4420.51515107,3878.06060567,4200.03030261,3140.36363605,4316.96969654,2530.42424217,5061.36363586,2946.66666637,4335.51515108,4199.5151511,4417.9393935,2415.03030279,4202.60606019,1364.12121198,4928.96969648,3268.12121179,4477.18181773,675.878787811,42.0,42.0,?
2017-08-01 19:36:47.101645,4573.51515106,3729.69696932,4108.84848444,4.1212121208,3856.93939355,3729.69696932,3867.75757537,4183.03030261,4192.8181814,4170.66666625,4408.15151471,3878.06060567,4181.48484807,3140.36363605,4302.0303026,2530.42424217,5078.87878737,2946.66666637,4314.39393896,4199.5151511,4412.27272683,2415.03030279,4196.93939352,1364.12121198,4923.81818133,3268.12121179,4481.30302985,675.878787811,42.0,42.0,?
2017-08-01 19:36:47.108967,4577.12121166,3729.69696932,4108.84848444,4.1212121208,3864.15151477,3729.69696932,3905.36363597,4183.03030261,4197.96969655,4170.66666625,4407.6363632,3878.06060567,4180.96969655,3140.36363605,4307.69696927,2530.42424217,5068.06060555,2946.66666637,4316.45454502,4199.5151511,4411.75757532,2415.03030279,4199.5151511,1364.12121198,4927.42424193,3268.12121179,4486.45454501,675.878787811,42.0,42.0,?
2017-08-01 19:36:47.115025,4581.24242378,3729.69696932,4109.36363595,4.1212121208,3863.63636325,3729.69696932,3845.09090871,4183.03030261,4209.30302988,4170.66666625,4418.96969653,3878.06060567,4186.63636322,3140.36363605,4308.7272723,2530.42424217,5057.24242374,2946.66666637,4333.96969654,4199.5151511,4419.48484804,2415.03030279,4203.1212117,1364.12121198,4935.66666617,3268.12121179,4489.03030258,675.878787811,42.0,42.0,?
2017-08-01 19:36:47.123089,4573.51515106,3729.69696932,4107.81818141,4.1212121208,3857.45454507,3729.69696932,3749.2727269,4183.03030261,4215.99999958,4170.66666625,4416.90909047,3878.06060567,4180.45454504,3140.36363605,4294.81818139,2530.42424217,5060.84848434,2946.66666637,4331.39393896,4199.5151511,4417.9393935,2415.03030279,4201.57575716,1364.12121198,4931.54545405,3268.12121179,4484.39393895,675.878787811,42.0,42.0,?
2017-08-01 19:36:47.132021,4579.18181772,3729.69696932,4112.45454504,4.1212121208,3862.0909087,3729.69696932,3770.39393902,4183.03030261,4205.69696928,4170.66666625,4425.15151471,3878.06060567,4188.18181776,3140.36363605,4305.12121169,2530.42424217,5067.03030252,2946.66666637,4331.90909048,4199.5151511,4422.57575713,2415.03030279,4202.60606019,1364.12121198,4936.18181769,3268.12121179,4492.12121167,675.878787811,42.0,42.0,?
2017-08-01 19:36:47.139701,4580.72727227,3729.69696932,4111.42424201,4.1212121208,3870.84848446,3729.69696932,3899.18181779,4183.03030261,4201.06060564,4170.66666625,4445.2424238,3878.06060567,4213.424242,3140.36363605,4327.78787836,2530.42424217,5077.84848434,2946.66666637,4339.6363632,4199.5151511,4426.69696925,2415.03030279,4201.57575716,1364.12121198,4933.60606011,3268.12121179,4495.21212076,675.878787811,42.0,42.0,?
2017-08-01 19:36:47.151021,4577.63636318,3729.69696932,4109.87878747,4.1212121208,3867.24242386,3729.69696932,3883.21212082,4183.03030261,4211.36363594,4170.66666625,4441.63636319,3878.06060567,4217.03030261,3140.36363605,4320.06060563,2530.42424217,5075.27272677,2946.66666637,4327.78787836,4199.5151511,4418.96969653,2415.03030279,4199.5151511,1364.12121198,4925.87878739,3268.12121179,4485.93939349,675.878787811,42.0,42.0,?
2017-08-01 19:36:47.155378,4579.18181772,3729.69696932,4110.39393898,4.1212121208,3858.4848481,3729.69696932,3771.93939356,4183.03030261,4211.36363594,4170.66666625,4432.36363592,3878.06060567,4206.21212079,3140.36363605,4310.78787836,2530.42424217,5065.48484798,2946.66666637,4310.27272684,4199.5151511,4414.33333289,2415.03030279,4198.48484806,1364.12121198,4926.90909042,3268.12121179,4481.81818137,675.878787811,42.0,42.0,?
2017-08-01 19:36:47.162561,4571.96969651,3729.69696932,4107.30302989,4.1212121208,3854.87878749,3729.69696932,3818.30302992,4183.03030261,4201.06060564,4170.66666625,4443.69696925,3878.06060567,4208.27272685,3140.36363605,4325.72727229,2530.42424217,5070.12121161,2946.66666637,4309.75757533,4199.5151511,4410.72727229,2415.03030279,4197.45454503,1364.12121198,4924.33333284,3268.12121179,4479.75757531,675.878787811,42.0,42.0,?
2017-08-01 19:36:47.174309,4574.54545409,3729.69696932,4111.93939353,4.1212121208,3847.66666628,3729.69696932,3902.7878784,4183.03030261,4198.99999958,4170.66666625,4444.21212077,3878.06060567,4206.21212079,3140.36363605,4322.6363632,2530.42424217,5060.84848434,2946.66666637,4309.24242381,4199.5151511,4408.15151471,2415.03030279,4197.45454503,1364.12121198,4927.42424193,3268.12121179,4482.33333289,675.878787811,42.0,42.0,?
2017-08-01 19:36:47.178089,4576.09090863,3729.69696932,4109.87878747,4.1212121208,3845.09090871,3729.69696932,3829.12121174,4183.03030261,4205.18181776,4170.66666625,4432.36363592,3878.06060567,4201.06060564,3140.36363605,4312.3333329,2530.42424217,5057.75757525,2946.66666637,4308.7272723,4199.5151511,4409.18181774,2415.03030279,4197.96969655,1364.12121198,4927.42424193,3268.12121179,4481.30302985,675.878787811,42.0,42.0,?
2017-08-01 19:36:47.186159,4572.48484803,3729.69696932,4107.30302989,4.1212121208,3861.06060567,3729.69696932,3743.09090872,4183.03030261,4208.27272685,4170.66666625,4429.27272683,3878.06060567,4203.1212117,3140.36363605,4319.54545411,2530.42424217,5081.96969646,2946.66666637,4316.45454502,4199.5151511,4410.72727229,2415.03030279,4202.09090867,1364.12121198,4926.90909042,3268.12121179,4479.24242379,675.878787811,42.0,42.0,?
2017-08-01 19:36:47.197369,4576.09090863,3729.69696932,4110.9090905,4.1212121208,3877.03030264,3729.69696932,3804.90909053,4183.03030261,4207.75757534,4170.66666625,4426.69696925,3878.06060567,4198.48484806,3140.36363605,4320.57575714,2530.42424217,5088.15151464,2946.66666637,4319.54545411,4199.5151511,4411.75757532,2415.03030279,4203.63636322,1364.12121198,4928.96969648,3268.12121179,4482.8484844,675.878787811,42.0,42.0,?
2017-08-01 19:36:47.202642,4573.51515106,3729.69696932,4108.84848444,4.1212121208,3872.39393901,3729.69696932,3913.60606021,4183.03030261,4209.8181814,4170.66666625,4423.60606016,3878.06060567,4191.78787837,3140.36363605,4316.45454502,2530.42424217,5073.72727222,2946.66666637,4315.93939351,4199.5151511,4408.66666623,2415.03030279,4202.09090867,1364.12121198,4924.33333284,3268.12121179,4481.81818137,675.878787811,42.0,42.0,?
2017-08-01 19:36:47.211243,4578.15151469,3729.69696932,4111.93939353,4.1212121208,3860.54545416,3729.69696932,3869.30302992,4183.03030261,4212.90909049,4170.66666625,4424.63636319,3878.06060567,4196.93939352,3140.36363605,4315.42424199,2530.42424217,5068.57575707,2946.66666637,4315.42424199,4199.5151511,4411.2424238,2415.03030279,4207.24242382,1364.12121198,4931.54545405,3268.12121179,4484.90909046,675.878787811,42.0,42.0,?
2017-08-01 19:36:47.217584,4578.66666621,3729.69696932,4111.42424201,4.1212121208,3862.60606022,3729.69696932,3789.96969659,4183.03030261,4211.87878746,4170.66666625,4425.66666622,3878.06060567,4203.63636322,3140.36363605,4312.3333329,2530.42424217,5080.93939343,2946.66666637,4325.21212078,4199.5151511,4418.96969653,2415.03030279,4207.75757534,1364.12121198,4935.66666617,3268.12121179,4490.57575713,675.878787811,42.0,42.0,?
