Timestamp,F3 Value,F3 Quality,FC5 Value,FC5 Quality,F7 Value,F7 Quality,T7 Value,T7 Quality,P7 Value,P7 Quality,O1 Value,O1 Quality,O2 Value,O2 Quality,P8 Value,P8 Quality,T8 Value,T8 Quality,F8 Value,F8 Quality,AF4 Value,AF4 Quality,FC6 Value,FC6 Quality,F4 Value,F4 Quality,AF3 Value,AF3 Quality,X Value,Y Value,Z Value
2017-08-01 19:21:18.884107,4541.06060561,0,4200.03030261,0,3899.18181779,2765.33333306,3895.57575719,0,4256.18181776,0,4442.15151471,0,4201.57575716,0,4311.30302987,0,5006.24242374,0,4189.72727231,0,4417.9393935,0,4227.33333291,0,4819.75757528,0,4496.75757531,0,42.0,42.0,?
2017-08-01 19:21:18.884216,4618.84848439,0,4385.99999956,0,4043.93939353,2765.33333306,3969.24242385,0,4334.48484805,0,4520.454545,0,4282.45454503,0,4391.15151471,0,5045.9090904,0,4292.24242381,0,4482.8484844,0,4610.09090863,0,4924.84848436,0,4568.87878742,0,42.0,42.0,?
2017-08-01 19:21:18.887506,4618.84848439,0,4385.99999956,0,4043.93939353,2765.33333306,3969.24242385,0,4334.48484805,0,4520.454545,0,4282.45454503,0,4391.15151471,0,5045.9090904,0,4292.24242381,0,4482.8484844,0,4610.09090863,0,4924.84848436,0,4568.87878742,0,42.0,42.0,?
2017-08-01 19:21:18.891674,4616.78787833,0,4381.36363593,0,4036.72727232,2765.33333306,3954.81818142,0,4334.99999957,0,4526.12121167,0,4282.96969654,0,4396.81818138,0,5044.87878737,0,4301.51515109,0,4483.87878743,0,4610.09090863,0,4935.15151466,0,4568.36363591,0,42.0,42.0,?
2017-08-01 19:21:18.895541,4608.03030257,0,4379.30302987,0,4026.93939354,2765.33333306,3962.54545415,0,4340.66666623,0,4531.27272682,0,4280.90909048,0,4391.66666623,0,5043.84848434,0,4299.96969654,0,4480.78787834,0,4614.72727227,0,4929.99999951,0,4554.96969651,0,42.0,42.0,?
2017-08-01 19:21:18.899641,4600.81818136,0,4375.18181774,0,4028.9999996,2765.33333306,3986.75757536,0,4351.48484805,0,4532.30302985,0,4275.75757533,0,4391.15151471,0,5071.15151464,0,4296.87878745,0,4480.27272682,0,4611.63636318,0,4919.18181769,0,4550.84848439,0,42.0,42.0,?
2017-08-01 19:21:18.902890,4606.99999954,0,4381.87878744,0,4038.78787838,2765.33333306,3967.6969693,0,4351.48484805,0,4534.87878743,0,4259.27272685,0,4388.06060562,0,5069.09090858,0,4294.30302987,0,4481.30302985,0,4604.42424196,0,4914.54545405,0,4562.18181773,0,42.0,42.0,?
2017-08-01 19:21:18.906267,4618.84848439,0,4382.90909047,0,4042.39393899,2765.33333306,3942.45454506,0,4337.57575714,0,4533.33333288,0,4251.03030261,0,4380.3333329,0,5035.6060601,0,4291.7272723,0,4481.30302985,0,4604.42424196,0,4914.03030254,0,4567.84848439,0,42.0,42.0,?
2017-08-01 19:21:18.909364,4625.54545408,0,4380.3333329,0,4043.42424202,2765.33333306,3964.09090869,0,4334.99999957,0,4526.63636318,0,4268.0303026,0,4384.45454502,0,5035.6060601,0,4294.81818139,0,4489.03030258,0,4607.51515105,0,4925.36363587,0,4564.24242379,0,42.0,42.0,?
2017-08-01 19:21:18.913478,4621.93939348,0,4376.72727229,0,4040.84848444,2765.33333306,3977.48484809,0,4343.24242381,0,4529.72727227,0,4292.24242381,0,4396.30302986,0,5060.33333283,0,4304.60606018,0,4500.87878743,0,4606.99999954,0,4941.84848435,0,4568.87878742,0,42.0,42.0,?
2017-08-01 19:21:18.916507,4612.15151469,0,4371.57575714,0,4033.12121172,2765.33333306,3963.06060566,0,4336.54545411,0,4530.7575753,0,4300.48484805,0,4396.30302986,0,5073.2121207,0,4307.69696927,0,4500.36363591,0,4606.99999954,0,4939.78787829,0,4572.48484803,0,42.0,42.0,?
2017-08-01 19:21:18.919517,4605.45454499,0,4377.75757532,0,4032.6060602,2765.33333306,3966.66666627,0,4324.18181775,0,4524.57575712,0,4295.84848442,0,4390.6363632,0,5067.03030252,0,4294.81818139,0,4482.33333289,0,4605.96969651,0,4917.63636314,0,4557.03030257,0,42.0,42.0,?
2017-08-01 19:21:18.922495,4601.84848439,0,4380.84848441,0,4040.33333293,2765.33333306,3977.9999996,0,4336.0303026,0,4528.69696924,0,4285.54545412,0,4388.06060562,0,5044.87878737,0,4281.93939351,0,4469.45454501,0,4603.90909045,0,4901.15151466,0,4545.69696924,0,42.0,42.0,?
2017-08-01 19:21:18.925681,4609.57575711,0,4382.39393896,0,4048.57575717,2765.33333306,3968.21212082,0,4354.57575714,0,4534.87878743,0,4273.69696927,0,4383.9393935,0,5032.51515101,0,4286.57575715,0,4482.33333289,0,4603.39393893,0,4907.33333284,0,4554.96969651,0,42.0,42.0,?
2017-08-01 19:21:18.929582,4623.48484802,0,4385.99999956,0,4051.66666626,2765.33333306,3966.15151475,0,4351.99999956,0,4532.81818136,0,4275.24242381,0,4389.09090865,0,5050.03030253,0,4300.99999957,0,4498.81818137,0,4603.90909045,0,4924.33333284,0,4567.84848439,0,42.0,42.0,?
2017-08-01 19:21:18.933387,4617.30302984,0,4383.42424199,0,4042.39393899,2765.33333306,3980.06060566,0,4342.21212078,0,4534.36363591,0,4288.12121169,0,4402.48484804,0,5065.99999949,0,4306.66666624,0,4495.72727228,0,4605.45454499,0,4928.96969648,0,4568.36363591,0,42.0,42.0,?
2017-08-01 19:21:18.940931,4605.96969651,0,4385.99999956,0,4035.69696929,2765.33333306,3986.24242384,0,4345.30302987,0,4540.54545409,0,4293.78787836,0,4403.51515107,0,5063.93939343,0,4299.45454502,0,4486.45454501,0,4606.48484802,0,4920.21212072,0,4559.60606015,0,42.0,42.0,?
2017-08-01 19:21:18.948538,4609.0606056,0,4382.90909047,0,4037.75757535,2765.33333306,3980.06060566,0,4349.9393935,0,4540.54545409,0,4290.18181775,0,4395.78787835,0,5061.36363586,0,4295.84848442,0,4491.60606016,0,4603.90909045,0,4917.63636314,0,4555.99999954,0,42.0,42.0,?
2017-08-01 19:21:18.956269,4614.72727227,0,4381.36363593,0,4037.24242384,2765.33333306,3964.09090869,0,4344.78787835,0,4535.39393894,0,4273.18181775,0,4389.60606017,0,5050.54545404,0,4292.75757533,0,4494.69696925,0,4600.81818136,0,4920.21212072,0,4553.93939348,0,42.0,42.0,?
2017-08-01 19:21:18.963624,4609.57575711,0,4389.09090865,0,4035.69696929,2765.33333306,3955.84848445,0,4347.36363593,0,4530.7575753,0,4255.66666624,0,4384.96969653,0,5041.78787828,0,4288.12121169,0,4483.36363592,0,4599.27272681,0,4916.60606011,0,4548.27272682,0,42.0,42.0,?
2017-08-01 19:21:18.972211,4597.72727227,0,4384.45454502,0,4035.18181778,2765.33333306,3966.15151475,0,4353.03030259,0,4528.69696924,0,4258.75757533,0,4383.42424199,0,5048.9999995,0,4294.30302987,0,4476.1515147,0,4601.84848439,0,4919.6969692,0,4544.66666621,0,42.0,42.0,?
2017-08-01 19:21:18.980801,4594.63636318,0,4383.42424199,0,4039.3030299,2765.33333306,3969.24242385,0,4339.12121169,0,4530.24242379,0,4277.30302988,0,4388.06060562,0,5055.69696919,0,4299.96969654,0,4481.81818137,0,4606.99999954,0,4925.36363587,0,4545.69696924,0,42.0,42.0,?
2017-08-01 19:21:18.987506,4602.87878742,0,4384.96969653,0,4040.33333293,2765.33333306,3970.27272688,0,4332.42424199,0,4534.87878743,0,4295.84848442,0,4402.48484804,0,5066.51515101,0,4297.39393896,0,4483.87878743,0,4604.93939348,0,4919.18181769,0,4554.454545,0,42.0,42.0,?
2017-08-01 19:21:18.995361,4614.21212075,0,4381.87878744,0,4038.27272687,2765.33333306,3981.60606021,0,4346.3333329,0,4538.48484803,0,4304.09090866,0,4408.66666623,0,5077.84848434,0,4295.3333329,0,4481.81818137,0,4598.24242378,0,4910.93939345,0,4564.7575753,0,42.0,42.0,?
2017-08-01 19:21:19.006555,4620.90909045,0,4384.96969653,0,4041.36363596,2765.33333306,3978.51515112,0,4353.03030259,0,4539.51515106,0,4295.3333329,0,4393.72727229,0,5064.45454495,0,4299.45454502,0,4488.51515107,0,4602.3636359,0,4915.06060557,0,4566.81818136,0,42.0,42.0,?
2017-08-01 19:21:19.014682,4618.33333287,0,4383.9393935,0,4043.42424202,2765.33333306,3967.6969693,0,4349.9393935,0,4533.33333288,0,4283.48484806,0,4381.87878744,0,5055.69696919,0,4304.09090866,0,4497.27272682,0,4605.96969651,0,4925.36363587,0,4567.33333288,0,42.0,42.0,?
2017-08-01 19:21:19.021435,4617.30302984,0,4385.48484805,0,4043.93939353,2765.33333306,3977.48484809,0,4351.99999956,0,4523.03030258,0,4278.33333291,0,4387.03030259,0,5070.12121161,0,4308.7272723,0,4500.87878743,0,4601.33333287,0,4938.75757526,0,4570.42424197,0,42.0,42.0,?
2017-08-01 19:21:19.028988,4615.7575753,0,4384.96969653,0,4043.93939353,2765.33333306,3989.84848445,0,4349.9393935,0,4524.57575712,0,4278.33333291,0,4395.78787835,0,5064.96969646,0,4314.90909048,0,4498.30302985,0,4601.33333287,0,4942.87878738,0,4568.87878742,0,42.0,42.0,?
2017-08-01 19:21:19.033704,4610.60606014,0,4382.39393896,0,4042.9090905,2765.33333306,3977.48484809,0,4343.24242381,0,4534.87878743,0,4285.0303026,0,4400.9393935,0,5047.45454495,0,4311.81818139,0,4489.03030258,0,4606.48484802,0,4932.06060557,0,4564.24242379,0,42.0,42.0,?
2017-08-01 19:21:19.044144,4611.63636318,0,4385.48484805,0,4041.87878747,2765.33333306,3963.06060566,0,4343.75757532,0,4535.90909046,0,4292.24242381,0,4405.06060562,0,5058.78787828,0,4307.18181775,0,4483.36363592,0,4609.0606056,0,4922.7878783,0,4562.69696924,0,42.0,42.0,?
2017-08-01 19:21:19.049970,4617.30302984,0,4381.87878744,0,4038.78787838,2765.33333306,3972.84848445,0,4344.78787835,0,4533.33333288,0,4288.63636321,0,4408.15151471,0,5084.03030252,0,4315.42424199,0,4491.09090864,0,4602.87878742,0,4925.36363587,0,4571.454545,0,42.0,42.0,?
2017-08-01 19:21:19.057595,4620.39393893,0,4383.42424199,0,4037.24242384,2765.33333306,3977.48484809,0,4339.12121169,0,4534.87878743,0,4269.06060563,0,4398.87878744,0,5076.81818131,0,4314.90909048,0,4499.33333288,0,4596.69696924,0,4926.90909042,0,4575.57575712,0,42.0,42.0,?
2017-08-01 19:21:19.066245,4616.78787833,0,4382.90909047,0,4035.69696929,2765.33333306,3977.48484809,0,4339.6363632,0,4531.27272682,0,4250.51515109,0,4379.30302987,0,5050.54545404,0,4296.36363593,0,4491.60606016,0,4596.69696924,0,4920.72727224,0,4566.30302985,0,42.0,42.0,?
2017-08-01 19:21:19.075517,4615.24242378,0,4376.72727229,0,4033.63636323,2765.33333306,3988.3030299,0,4349.9393935,0,4531.27272682,0,4262.36363594,0,4376.72727229,0,5048.48484798,0,4288.12121169,0,4481.81818137,0,4595.15151469,0,4915.06060557,0,4560.12121167,0,42.0,42.0,?
2017-08-01 19:21:19.080631,4620.90909045,0,4383.42424199,0,4038.78787838,2765.33333306,3977.9999996,0,4347.87878744,0,4543.63636318,0,4292.75757533,0,4392.69696926,0,5067.03030252,0,4294.30302987,0,4483.36363592,0,4597.21212075,0,4918.15151466,0,4560.12121167,0,42.0,42.0,?
2017-08-01 19:21:19.088560,4618.84848439,0,4382.90909047,0,4038.78787838,2765.33333306,3957.393939,0,4338.09090866,0,4551.36363591,0,4304.09090866,0,4398.36363592,0,5070.63636313,0,4298.42424199,0,4486.96969652,0,4601.33333287,0,4922.7878783,0,4559.09090864,0,42.0,42.0,?
2017-08-01 19:21:19.097873,4611.12121166,0,4379.30302987,0,4034.66666626,2765.33333306,3972.33333294,0,4342.21212078,0,4543.12121167,0,4296.87878745,0,4390.6363632,0,5059.3030298,0,4296.87878745,0,4483.36363592,0,4599.27272681,0,4918.66666617,0,4553.93939348,0,42.0,42.0,?
2017-08-01 19:21:19.106961,4607.51515105,2876.60606032,4380.3333329,0,4038.78787838,2765.33333306,3979.54545415,0,4348.39393896,0,4530.24242379,0,4293.27272684,0,4388.57575714,0,5057.24242374,0,4292.24242381,0,4472.5454541,0,4595.15151469,0,4907.84848436,0,4553.42424197,0,42.0,42.0,?
2017-08-01 19:21:19.113253,4594.12121166,2876.60606032,4375.69696926,1219.87878776,4034.66666626,2765.33333306,3960.48484809,0,4340.15151472,0,4520.96969652,0,4284.51515109,0,4383.9393935,0,5053.63636313,0,4281.93939351,0,4460.18181774,0,4592.57575712,0,4897.03030254,0,4550.33333288,0,42.0,42.0,?
2017-08-01 19:21:19.122186,4580.72727227,2876.60606032,4378.27272683,1219.87878776,4023.84848445,2765.33333306,3964.09090869,0,4328.30302987,0,4512.72727228,0,4265.96969654,0,4371.57575714,0,5040.75757525,0,4273.69696927,0,4456.06060561,0,4592.0606056,0,4892.3939389,0,4539.51515106,4005.81818142,42.0,42.0,?
2017-08-01 19:21:19.129573,4584.84848439,2876.60606032,4378.78787835,1219.87878776,4024.87878748,2551.03030278,3980.06060566,0,4331.90909048,0,4512.21212076,0,4261.84848442,0,4373.12121168,0,5042.3030298,0,4277.81818139,0,4462.2424238,0,4594.12121166,0,4896.51515103,0,4540.54545409,4005.81818142,42.0,42.0,?
2017-08-01 19:21:19.138174,4597.72727227,2876.60606032,4378.78787835,1219.87878776,4030.03030263,2551.03030278,3971.81818142,3263.99999967,4342.72727229,0,4518.90909046,0,4267.51515109,0,4377.2424238,0,5048.48484798,0,4282.45454503,0,4468.42424198,0,4596.18181772,0,4904.24242375,0,4546.72727227,4005.81818142,42.0,42.0,?
2017-08-01 19:21:19.145785,4602.3636359,2876.60606032,4380.3333329,1219.87878776,4029.51515111,2551.03030278,3955.33333294,3263.99999967,4340.15151472,4211.87878746,4524.06060561,0,4272.66666624,0,4372.09090865,0,5048.48484798,0,4283.48484806,0,4468.93939349,0,4592.0606056,0,4908.87878739,0,4544.66666621,4005.81818142,42.0,42.0,?
2017-08-01 19:21:19.152874,4602.3636359,2876.60606032,4376.21212077,1219.87878776,4026.42424202,2551.03030278,3952.24242385,3263.99999967,4332.93939351,4211.87878746,4532.81818136,4018.18181778,4277.81818139,0,4376.72727229,0,5047.96969646,0,4292.24242381,0,4469.45454501,0,4593.60606015,0,4912.48484799,0,4546.72727227,4005.81818142,42.0,42.0,?
2017-08-01 19:21:19.160538,4609.0606056,2876.60606032,4380.3333329,1219.87878776,4028.48484808,2551.03030278,3958.93939354,3263.99999967,4340.15151472,4211.87878746,4548.78787833,4018.18181778,4273.69696927,3189.8181815,4383.9393935,0,5044.87878737,0,4294.81818139,0,4477.18181773,0,4596.18181772,0,4917.12121163,0,4550.33333288,4005.81818142,42.0,42.0,?
2017-08-01 19:21:19.167015,4608.54545408,2876.60606032,4379.30302987,1219.87878776,4027.45454505,2551.03030278,3965.12121172,3263.99999967,4349.9393935,4211.87878746,4556.51515106,4018.18181778,4263.90909048,3189.8181815,4376.72727229,2542.78787853,5045.39393889,0,4285.54545412,0,4477.18181773,0,4589.99999954,0,4914.03030254,0,4547.24242379,4005.81818142,42.0,42.0,?
2017-08-01 19:21:19.174842,4599.27272681,2876.60606032,4375.18181774,1219.87878776,4019.21212081,2551.03030278,3966.15151475,3263.99999967,4341.69696926,4211.87878746,4545.18181773,4018.18181778,4260.30302988,3189.8181815,4366.42424199,2542.78787853,5035.6060601,2831.27272699,4280.90909048,0,4470.99999955,0,4587.93939348,0,4909.90909042,0,4545.18181773,4005.81818142,42.0,42.0,?
2017-08-01 19:21:19.183672,4597.72727227,2876.60606032,4380.84848441,1219.87878776,4015.6060602,2551.03030278,3968.72727233,3263.99999967,4333.45454502,4211.87878746,4532.30302985,4018.18181778,4261.84848442,3189.8181815,4359.72727229,2542.78787853,5013.96969647,2831.27272699,4279.36363594,8.2424242416,4469.45454501,0,4592.57575712,0,4908.87878739,0,4545.69696924,4005.81818142,42.0,42.0,?
2017-08-01 19:21:19.191435,4595.15151469,2876.60606032,4375.69696926,1219.87878776,4016.12121172,2551.03030278,3965.12121172,3263.99999967,4338.09090866,4211.87878746,4533.33333288,4018.18181778,4266.99999957,3189.8181815,4358.69696926,2542.78787853,5024.78787829,2831.27272699,4273.69696927,8.2424242416,4462.2424238,3346.42424209,4593.60606015,0,4899.0909086,0,4544.1515147,4005.81818142,42.0,42.0,?
2017-08-01 19:21:19.200490,4591.03030257,2876.60606032,4375.18181774,1219.87878776,4021.27272687,2551.03030278,3957.393939,3263.99999967,4334.99999957,4211.87878746,4533.33333288,4018.18181778,4273.69696927,3189.8181815,4366.42424199,2542.78787853,5052.09090859,2831.27272699,4272.66666624,8.2424242416,4457.60606016,3346.42424209,4589.99999954,2225.45454523,4891.36363587,0,4542.09090864,4005.81818142,42.0,42.0,?
2017-08-01 19:21:19.207729,4594.63636318,2876.60606032,4383.42424199,1219.87878776,4023.84848445,2551.03030278,3963.57575718,3263.99999967,4331.39393896,4211.87878746,4529.72727227,4018.18181778,4274.7272723,3189.8181815,4375.18181774,2542.78787853,5056.21212071,2831.27272699,4283.48484806,8.2424242416,4468.42424198,3346.42424209,4588.96969651,2225.45454523,4901.15151466,2855.99999971,4545.69696924,4005.81818142,42.0,42.0,?
2017-08-01 19:21:19.214531,4603.39393893,2876.60606032,4382.39393896,1219.87878776,4020.75757536,2551.03030278,3972.33333294,3263.99999967,4333.45454502,4211.87878746,4524.57575712,4018.18181778,4271.63636321,3189.8181815,4375.69696926,2542.78787853,5056.72727222,2831.27272699,4292.24242381,12.3636363624,4478.72727228,3346.42424209,4591.54545409,2225.45454523,4911.96969648,2855.99999971,4551.36363591,4005.81818142,42.0,42.0,?
2017-08-01 19:21:19.221714,4602.3636359,2876.60606032,4379.81818138,1219.87878776,4019.21212081,2551.03030278,3968.21212082,3263.99999967,4322.6363632,4211.87878746,4510.66666622,4018.18181778,4268.54545412,3189.8181815,4373.12121168,2542.78787853,5048.9999995,2831.27272699,4289.15151472,12.3636363624,4476.1515147,3346.42424209,4592.0606056,2225.45454523,4909.3939389,2855.99999971,4545.69696924,4005.81818142,42.0,42.0,?
2017-08-01 19:21:19.230005,4589.48484803,2876.60606032,4374.66666623,1219.87878776,4016.63636323,2551.03030278,3958.93939354,3263.99999967,4314.90909048,4211.87878746,4500.87878743,4018.18181778,4266.99999957,3189.8181815,4376.21212077,2542.78787853,5030.45454495,2831.27272699,4283.99999957,12.3636363624,4466.87878743,3346.42424209,4587.42424197,2225.45454523,4903.72727224,2855.99999971,4537.96969652,4005.81818142,42.0,42.0,?
2017-08-01 19:21:19.239011,4586.39393894,2876.60606032,4378.27272683,1219.87878776,4014.57575717,2551.03030278,3959.96969657,3263.99999967,4325.72727229,4211.87878746,4506.03030258,4018.18181778,4265.96969654,3189.8181815,4380.84848441,2542.78787853,5039.72727222,2831.27272699,4281.424242,12.3636363624,4464.30302986,3346.42424209,4586.90909045,2225.45454523,4905.7878783,2855.99999971,4542.60606015,4005.81818142,42.0,42.0,?
2017-08-01 19:21:19.246394,4592.0606056,2876.60606032,4381.87878744,1219.87878776,4013.03030263,2551.03030278,3960.9999996,3263.99999967,4327.27272684,4211.87878746,4507.06060561,4018.18181778,4257.7272723,3189.8181815,4378.27272683,2542.78787853,5063.42424192,2831.27272699,4278.33333291,12.3636363624,4467.90909046,3346.42424209,4591.03030257,2225.45454523,4906.81818133,2855.99999971,4548.78787833,4005.81818142,42.0,42.0,?
2017-08-01 19:21:19.253074,4591.03030257,2876.60606032,4378.27272683,1219.87878776,4010.45454505,2551.03030278,3955.33333294,3263.99999967,4308.7272723,4211.87878746,4495.21212076,4018.18181778,4247.93939351,3189.8181815,4366.9393935,2542.78787853,5058.27272677,2831.27272699,4272.66666624,12.3636363624,4468.42424198,3346.42424209,4586.39393894,2225.45454523,4900.63636315,2855.99999971,4546.21212076,4005.81818142,42.0,42.0,?
2017-08-01 19:21:19.260588,4583.81818136,2876.60606032,4379.81818138,1219.87878776,4015.6060602,2551.03030278,3956.36363597,3263.99999967,4303.06060563,4211.87878746,4490.57575713,4018.18181778,4248.45454503,3189.8181815,4360.24242381,2542.78787853,5044.87878737,2831.27272699,4263.39393897,12.3636363624,4457.60606016,3346.42424209,4579.18181772,2225.45454523,4890.84848436,2855.99999971,4534.36363591,4005.81818142,42.0,42.0,?
2017-08-01 19:21:19.269044,4572.99999954,2876.60606032,4375.69696926,1219.87878776,4019.21212081,2551.03030278,3943.48484809,3263.99999967,4315.93939351,4211.87878746,4502.42424197,4018.18181778,4260.81818139,3189.8181815,4367.96969653,2542.78787853,5044.36363586,2831.27272699,4265.45454503,12.3636363624,4448.8484844,3346.42424209,4583.30302984,2225.45454523,4881.57575709,2855.99999971,4520.454545,4005.81818142,42.0,42.0,?
2017-08-01 19:21:19.281831,4577.12121166,2876.60606032,4377.2424238,1219.87878776,4013.54545414,2551.03030278,3924.93939355,3263.99999967,4320.06060563,4211.87878746,4513.75757531,4018.18181778,4268.54545412,3189.8181815,4373.6363632,2542.78787853,5037.66666616,2831.27272699,4277.81818139,12.3636363624,4457.60606016,3346.42424209,4593.09090863,2225.45454523,4888.27272678,2855.99999971,4521.99999955,4005.81818142,42.0,42.0,?
2017-08-01 19:21:19.286498,4587.42424197,2876.60606032,4381.36363593,1219.87878776,4006.84848445,2551.03030278,3940.393939,3263.99999967,4315.93939351,4211.87878746,4509.63636319,4018.18181778,4266.99999957,3189.8181815,4371.06060562,2542.78787853,5029.93939344,2831.27272699,4279.87878745,12.3636363624,4460.18181774,3346.42424209,4589.99999954,2225.45454523,4899.60606012,2855.99999971,4532.30302985,4005.81818142,42.0,42.0,?
2017-08-01 19:21:19.295239,4586.90909045,2876.60606032,4376.72727229,1219.87878776,4010.96969657,2551.03030278,3969.24242385,3263.99999967,4312.84848442,4211.87878746,4500.36363591,4018.18181778,4264.424242,3189.8181815,4369.51515108,2542.78787853,5026.84848435,2831.27272699,4277.30302988,12.3636363624,4450.39393895,3346.42424209,4578.15151469,2225.45454523,4898.06060557,2855.99999971,4536.42424197,4005.81818142,42.0,42.0,?
2017-08-01 19:21:19.300387,4586.90909045,2876.60606032,4379.81818138,1219.87878776,4018.6969693,2551.03030278,3965.63636324,3263.99999967,4304.60606018,4211.87878746,4503.96969652,4018.18181778,4262.36363594,3189.8181815,4364.36363593,2542.78787853,5020.66666616,2831.27272699,4279.87878745,12.3636363624,4456.06060561,3346.42424209,4579.69696924,2225.45454523,4895.484848,2855.99999971,4537.454545,4005.81818142,42.0,42.0,?
2017-08-01 19:21:19.309475,4585.87878742,2876.60606032,4376.21212077,1219.87878776,4011.9999996,2551.03030278,3942.96969658,3263.99999967,4304.09090866,4211.87878746,4511.18181773,4018.18181778,4265.96969654,3189.8181815,4359.72727229,2542.78787853,5035.09090859,2831.27272699,4280.90909048,12.3636363624,4466.87878743,3346.42424209,4584.33333287,2225.45454523,4895.99999951,2855.99999971,4536.93939349,4005.81818142,42.0,42.0,?
2017-08-01 19:21:19.316064,4584.84848439,2876.60606032,4374.66666623,1219.87878776,4006.84848445,2551.03030278,3941.93939355,3263.99999967,4315.42424199,4211.87878746,4508.60606016,4018.18181778,4272.15151472,3189.8181815,4362.81818138,2542.78787853,5053.63636313,2831.27272699,4280.90909048,12.3636363624,4463.78787834,3346.42424209,4583.81818136,2225.45454523,4895.484848,2855.99999971,4534.36363591,4005.81818142,42.0,42.0,?
2017-08-01 19:21:19.323665,4587.42424197,2876.60606032,4381.87878744,1219.87878776,4013.03030263,2551.03030278,3945.54545415,3263.99999967,4314.90909048,4211.87878746,4503.96969652,4018.18181778,4265.96969654,3189.8181815,4363.3333329,2542.78787853,5040.24242374,2831.27272699,4278.33333291,12.3636363624,4453.99999955,3346.42424209,4582.78787833,2225.45454523,4896.51515103,2855.99999971,4534.87878743,4005.81818142,42.0,42.0,?
2017-08-01 19:21:19.333516,4576.60606015,2876.60606032,4375.69696926,1219.87878776,4006.84848445,2551.03030278,3926.48484809,3263.99999967,4308.7272723,4211.87878746,4498.81818137,4018.18181778,4246.90909048,3189.8181815,4355.09090866,2542.78787853,5022.21212071,2831.27272699,4263.90909048,12.3636363624,4442.15151471,3346.42424209,4579.69696924,2225.45454523,4891.36363587,2855.99999971,4528.69696924,4005.81818142,42.0,42.0,?
2017-08-01 19:21:19.338967,4568.87878742,2876.60606032,4375.18181774,1219.87878776,3999.63636324,2551.03030278,3917.72727234,3263.99999967,4309.24242381,4211.87878746,4490.06060561,4018.18181778,4232.99999958,3189.8181815,4347.87878744,2542.78787853,5024.78787829,2831.27272699,4252.06060564,12.3636363624,4436.48484804,3346.42424209,4576.60606015,2225.45454523,4884.15151466,2855.99999971,4511.18181773,4005.81818142,42.0,42.0,?
2017-08-01 19:21:19.349039,4576.09090863,2876.60606032,4377.2424238,1219.87878776,4005.3030299,2551.03030278,3947.60606021,3263.99999967,4306.66666624,4211.87878746,4488.51515107,4018.18181778,4236.60606018,3189.8181815,4350.96969653,2542.78787853,5021.18181768,2831.27272699,4257.7272723,12.3636363624,4440.09090865,3346.42424209,4578.66666621,2225.45454523,4886.21212072,2855.99999971,4512.21212076,4005.81818142,42.0,42.0,?
2017-08-01 19:21:19.357081,4579.69696924,2876.60606032,4374.66666623,1219.87878776,4006.84848445,2551.03030278,3961.51515112,3263.99999967,4297.39393896,4211.87878746,4490.57575713,4018.18181778,4238.66666624,3189.8181815,4348.39393896,2542.78787853,5008.3030298,2831.27272699,4260.30302988,12.3636363624,4438.5454541,3346.42424209,4579.18181772,2225.45454523,4887.24242375,2855.99999971,4523.54545409,4005.81818142,42.0,42.0,?
2017-08-01 19:21:19.363747,4579.69696924,2876.60606032,4377.75757532,1219.87878776,4006.33333293,2551.03030278,3936.78787839,3263.99999967,4300.48484805,4211.87878746,4485.42424198,4018.18181778,4224.75757534,3189.8181815,4337.06060563,2542.78787853,5007.78787829,2831.27272699,4251.03030261,12.3636363624,4437.51515107,3346.42424209,4572.48484803,2225.45454523,4881.57575709,2855.99999971,4521.99999955,4005.81818142,42.0,42.0,?
2017-08-01 19:21:19.372133,4582.78787833,2876.60606032,4374.66666623,1219.87878776,4010.45454505,2551.03030278,3934.21212082,3263.99999967,4313.87878745,4211.87878746,4485.93939349,4018.18181778,4219.09090867,3189.8181815,4344.27272684,2542.78787853,5016.03030253,2831.27272699,4254.1212117,12.3636363624,4446.27272683,3346.42424209,4573.51515106,2225.45454523,4885.18181769,2855.99999971,4521.99999955,4005.81818142,42.0,42.0,?
2017-08-01 19:21:19.379315,4584.84848439,2876.60606032,4376.21212077,1219.87878776,4014.06060566,2551.03030278,3951.72727233,3263.99999967,4314.39393896,4211.87878746,4493.66666622,4018.18181778,4228.87878746,3189.8181815,4355.60606017,2542.78787853,5021.69696919,2831.27272699,4261.84848442,12.3636363624,4454.51515107,3346.42424209,4576.60606015,2225.45454523,4896.51515103,2855.99999971,4524.57575712,4005.81818142,42.0,42.0,?
2017-08-01 19:21:19.388190,4580.21212075,2876.60606032,4377.75757532,1219.87878776,4008.39393899,2551.03030278,3935.75757536,3263.99999967,4302.54545412,4211.87878746,4492.12121167,4018.18181778,4232.48484806,3189.8181815,4347.87878744,2542.78787853,5023.75757526,2831.27272699,4258.75757533,12.3636363624,4448.8484844,3346.42424209,4574.03030257,2225.45454523,4892.3939389,2855.99999971,4520.96969652,4005.81818142,42.0,42.0,?
2017-08-01 19:21:19.394461,4578.66666621,2876.60606032,4373.12121168,1219.87878776,4000.15151475,2551.03030278,3922.87878749,3263.99999967,4298.93939351,4211.87878746,4485.93939349,4018.18181778,4232.99999958,3189.8181815,4341.18181775,2542.78787853,5017.57575707,2831.27272699,4255.66666624,12.3636363624,4439.57575713,3346.42424209,4575.0606056,2225.45454523,4882.0909086,2855.99999971,4519.42424197,4005.81818142,42.0,42.0,?
2017-08-01 19:21:19.402295,4584.84848439,2876.60606032,4375.69696926,1219.87878776,4002.72727233,2551.03030278,3950.18181779,3263.99999967,4305.63636321,4211.87878746,4490.06060561,4018.18181778,4242.27272685,3189.8181815,4346.3333329,2542.78787853,5014.9999995,2831.27272699,4261.84848442,12.3636363624,4442.15151471,3346.42424209,4575.57575712,2225.45454523,4886.21212072,2855.99999971,4521.99999955,4005.81818142,42.0,42.0,?
2017-08-01 19:21:19.409605,4584.84848439,2876.60606032,4374.66666623,1219.87878776,4006.84848445,2551.03030278,3959.96969657,3263.99999967,4305.12121169,4211.87878746,4494.69696925,4018.18181778,4254.63636321,3189.8181815,4354.57575714,2542.78787853,5027.36363586,2831.27272699,4270.09090866,12.3636363624,4449.87878743,3346.42424209,4574.03030257,2225.45454523,4893.93939345,2855.99999971,4527.66666621,4005.81818142,42.0,42.0,?
2017-08-01 19:21:19.419104,4578.66666621,2876.60606032,4376.72727229,1219.87878776,4004.78787839,2551.03030278,3928.03030264,3263.99999967,4299.96969654,4211.87878746,4492.12121167,4018.18181778,4263.90909048,3189.8181815,4360.24242381,2542.78787853,5036.63636313,2831.27272699,4271.63636321,12.3636363624,4451.42424198,3346.42424209,4574.03030257,2225.45454523,4894.45454497,2855.99999971,4532.81818136,4005.81818142,42.0,42.0,?
2017-08-01 19:21:19.427755,4576.60606015,2876.60606032,4378.78787835,1219.87878776,4004.27272687,2551.03030278,3925.45454506,3263.99999967,4302.0303026,4211.87878746,4488.51515107,4018.18181778,4265.96969654,3189.8181815,4361.27272684,2542.78787853,5038.69696919,2831.27272699,4270.60606018,12.3636363624,4450.90909046,3346.42424209,4574.54545409,2225.45454523,4892.3939389,2855.99999971,4532.81818136,4005.81818142,42.0,42.0,?
2017-08-01 19:21:19.433475,4580.21212075,2876.60606032,4373.12121168,1219.87878776,4006.84848445,2551.03030278,3952.75757536,3263.99999967,4302.0303026,4211.87878746,4483.36363592,4018.18181778,4252.06060564,3189.8181815,4351.48484805,2542.78787853,5032.51515101,2831.27272699,4267.51515109,12.3636363624,4448.33333289,3346.42424209,4570.93939348,2225.45454523,4887.75757527,2855.99999971,4529.72727227,4005.81818142,42.0,42.0,?
2017-08-01 19:21:19.440595,4581.7575753,2876.60606032,4376.21212077,1219.87878776,4008.39393899,2551.03030278,3941.93939355,3263.99999967,4294.81818139,4211.87878746,4474.60606016,4018.18181778,4230.93939352,3189.8181815,4341.18181775,2542.78787853,5019.12121162,2831.27272699,4259.78787836,12.3636363624,4442.15151471,3346.42424209,4568.87878742,2225.45454523,4878.484848,2855.99999971,4527.1515147,4005.81818142,42.0,42.0,?
2017-08-01 19:21:19.450621,4570.42424197,2876.60606032,4373.12121168,1219.87878776,4001.18181778,2551.03030278,3922.87878749,3263.99999967,4292.24242381,4211.87878746,4469.96969652,4018.18181778,4223.7272723,3189.8181815,4339.12121169,2542.78787853,5019.63636313,2831.27272699,4256.18181776,12.3636363624,4433.39393895,3346.42424209,4567.33333288,2225.45454523,4872.81818133,2855.99999971,4521.48484803,4005.81818142,42.0,42.0,?
2017-08-01 19:21:19.458985,4556.51515106,2876.60606032,4371.06060562,1219.87878776,3992.42424203,2551.03030278,3935.24242385,3263.99999967,4292.24242381,4211.87878746,4468.93939349,4018.18181778,4220.1212117,3189.8181815,4329.84848442,2542.78787853,5012.42424192,2831.27272699,4254.1212117,12.3636363624,4425.66666622,3346.42424209,4564.24242379,2225.45454523,4869.21212073,2855.99999971,4510.66666622,4005.81818142,42.0,42.0,?
2017-08-01 19:21:19.465460,4557.03030257,2876.60606032,4375.69696926,1219.87878776,3994.9999996,2551.03030278,3946.06060567,3263.99999967,4293.27272684,4211.87878746,4468.93939349,4018.18181778,4211.36363594,3189.8181815,4323.15151472,2542.78787853,4991.3030298,2831.27272699,4254.63636321,12.3636363624,4426.18181774,3346.42424209,4566.30302985,2225.45454523,4867.66666618,2855.99999971,4508.60606016,4005.81818142,42.0,42.0,?
2017-08-01 19:21:19.473387,4567.33333288,2876.60606032,4373.12121168,1219.87878776,4001.6969693,2551.03030278,3943.99999961,3263.99999967,4299.45454502,4211.87878746,4474.09090864,4018.18181778,4201.57575716,3189.8181815,4334.48484805,2542.78787853,5002.63636314,2831.27272699,4259.78787836,12.3636363624,4432.36363592,3346.42424209,4566.81818136,2225.45454523,4869.72727224,2855.99999971,4517.36363591,4005.81818142,42.0,42.0,?
2017-08-01 19:21:19.479918,4569.39393894,2876.60606032,4373.12121168,1219.87878776,4001.6969693,2551.03030278,3928.03030264,3263.99999967,4295.3333329,4211.87878746,4478.72727228,4018.18181778,4190.75757534,3189.8181815,4331.90909048,2542.78787853,5019.63636313,2831.27272699,4247.93939351,12.3636363624,4428.2424238,3346.42424209,4560.12121167,2225.45454523,4866.12121163,2855.99999971,4514.78787834,4005.81818142,42.0,42.0,?
2017-08-01 19:21:19.488269,4560.12121167,2876.60606032,4371.57575714,1219.87878776,3994.48484809,2551.03030278,3913.0909087,3263.99999967,4291.7272723,4211.87878746,4481.81818137,4018.18181778,4196.93939352,3189.8181815,4319.54545411,2542.78787853,5004.6969692,2831.27272699,4235.06060564,12.3636363624,4421.03030259,3346.42424209,4554.454545,2225.45454523,4861.99999951,2855.99999971,4508.09090864,4005.81818142,42.0,42.0,?
2017-08-01 19:21:19.495686,4564.7575753,2876.60606032,4373.12121168,1219.87878776,3998.09090869,2551.03030278,3932.66666627,3263.99999967,4301.51515109,4211.87878746,4487.99999955,4018.18181778,4224.24242382,3189.8181815,4329.3333329,2542.78787853,5000.06060556,2831.27272699,4247.93939351,12.3636363624,4429.27272683,3346.42424209,4559.60606015,2225.45454523,4874.36363588,2855.99999971,4517.36363591,4005.81818142,42.0,42.0,?
2017-08-01 19:21:19.506133,4577.63636318,2876.60606032,4375.18181774,1219.87878776,4008.39393899,2551.03030278,3959.96969657,3263.99999967,4305.12121169,4211.87878746,4491.60606016,4018.18181778,4239.69696927,3189.8181815,4342.21212078,2542.78787853,5012.93939344,2831.27272699,4258.24242382,12.3636363624,4438.5454541,3346.42424209,4566.30302985,2225.45454523,4882.60606012,2855.99999971,4525.60606015,4005.81818142,42.0,42.0,?
2017-08-01 19:21:19.513608,4563.21212076,2876.60606032,4370.03030259,1219.87878776,3997.06060566,2551.03030278,3924.93939355,3263.99999967,4298.93939351,4211.87878746,4484.39393895,4018.18181778,4236.60606018,3189.8181815,4335.51515108,2542.78787853,5005.21212071,2831.27272699,4237.1212117,12.3636363624,4431.84848441,3346.42424209,4552.90909045,2225.45454523,4869.72727224,2855.99999971,4517.36363591,4005.81818142,42.0,42.0,?
2017-08-01 19:21:19.521172,4563.21212076,2876.60606032,4370.03030259,1219.87878776,3997.06060566,2551.03030278,3924.93939355,3263.99999967,4298.93939351,4211.87878746,4475.12121167,4018.18181778,4236.09090867,3189.8181815,4329.84848442,2542.78787853,5005.21212071,2831.27272699,4237.1212117,12.3636363624,4426.18181774,3346.42424209,4552.90909045,2225.45454523,4864.57575709,2855.99999971,4508.60606016,4005.81818142,42.0,42.0,?
2017-08-01 19:21:19.527034,4566.81818136,2876.60606032,4371.06060562,1219.87878776,3995.51515112,2551.03030278,3912.57575718,3263.99999967,4292.75757533,4211.87878746,4475.12121167,4018.18181778,4235.57575715,3189.8181815,4334.48484805,2542.78787853,4993.87878738,2831.27272699,4244.84848442,12.3636363624,4430.30302986,3346.42424209,4552.39393894,2225.45454523,4872.30302982,2855.99999971,4514.27272682,4005.81818142,42.0,42.0,?
2017-08-01 19:21:19.543198,4570.93939348,2876.60606032,4371.57575714,1219.87878776,3997.06060566,2551.03030278,3933.6969693,3263.99999967,4288.12121169,4211.87878746,4473.57575713,4018.18181778,4224.75757534,3189.8181815,4333.96969654,2542.78787853,4996.96969647,2831.27272699,4242.27272685,12.3636363624,4434.9393935,3346.42424209,4552.39393894,2225.45454523,4872.81818133,2855.99999971,4521.48484803,4005.81818142,42.0,42.0,?
2017-08-01 19:21:19.551447,4576.60606015,2876.60606032,4371.06060562,1219.87878776,4003.75757536,2551.03030278,3959.45454506,3263.99999967,4297.39393896,4211.87878746,4465.8484844,4018.18181778,4218.06060564,3189.8181815,4328.81818139,2542.78787853,5006.75757526,2831.27272699,4238.66666624,12.3636363624,4435.45454501,3346.42424209,4552.90909045,2225.45454523,4871.7878783,2855.99999971,4521.48484803,4005.81818142,42.0,42.0,?
2017-08-01 19:21:19.551583,4576.60606015,2876.60606032,4371.06060562,1219.87878776,4003.75757536,2551.03030278,3957.90909051,3263.99999967,4297.39393896,4211.87878746,4464.81818137,4018.18181778,4217.54545412,3189.8181815,4326.75757532,2542.78787853,5006.75757526,2831.27272699,4242.78787836,12.3636363624,4430.81818138,3346.42424209,4552.90909045,2225.45454523,4873.84848436,2855.99999971,4522.51515106,4005.81818142,42.0,42.0,?
2017-08-01 19:21:19.558459,4571.96969651,2876.60606032,4371.57575714,1219.87878776,3998.09090869,2551.03030278,3937.30302991,3263.99999967,4292.75757533,4211.87878746,4472.5454541,4018.18181778,4220.63636321,3189.8181815,4326.75757532,2542.78787853,4986.15151465,2831.27272699,4243.81818139,12.3636363624,4430.81818138,3346.42424209,4552.90909045,2225.45454523,4878.484848,2855.99999971,4525.60606015,4005.81818142,42.0,42.0,?
2017-08-01 19:21:19.566010,4576.09090863,2876.60606032,4375.69696926,1219.87878776,3996.03030263,2551.03030278,3923.393939,3263.99999967,4298.42424199,4211.87878746,4477.18181773,4018.18181778,4226.30302988,3189.8181815,4332.93939351,2542.78787853,5004.6969692,2831.27272699,4247.93939351,12.3636363624,4441.12121168,3346.42424209,4552.90909045,2225.45454523,4887.24242375,2855.99999971,4531.78787833,4005.81818142,42.0,42.0,?
2017-08-01 19:21:19.577196,4583.30302984,2876.60606032,4376.21212077,1219.87878776,3998.09090869,2551.03030278,3920.30302991,3263.99999967,4304.60606018,4211.87878746,4482.33333289,4018.18181778,4218.06060564,3189.8181815,4337.57575714,2542.78787853,5024.78787829,2831.27272699,4250.51515109,12.3636363624,4445.2424238,3346.42424209,4550.33333288,2225.45454523,4890.33333284,2855.99999971,4531.27272682,4005.81818142,42.0,42.0,?
2017-08-01 19:21:19.581990,4577.63636318,2876.60606032,4378.27272683,1219.87878776,3997.57575718,2551.03030278,3924.93939355,3263.99999967,4294.30302987,4211.87878746,4487.48484804,4018.18181778,4203.1212117,3189.8181815,4329.84848442,2542.78787853,5002.63636314,2831.27272699,4239.18181776,12.3636363624,4434.42424198,3346.42424209,4546.21212076,2225.45454523,4880.03030254,2855.99999971,4519.93939349,4005.81818142,42.0,42.0,?
2017-08-01 19:21:19.589567,4567.84848439,2876.60606032,4372.09090865,1219.87878776,3991.39393899,2551.03030278,3934.72727233,3263.99999967,4290.18181775,4211.87878746,4485.93939349,4018.18181778,4212.39393897,3189.8181815,4327.78787836,2542.78787853,4987.18181768,2831.27272699,4236.09090867,12.3636363624,4428.2424238,3346.42424209,4545.69696924,2225.45454523,4877.96969648,2855.99999971,4519.93939349,4005.81818142,42.0,42.0,?
2017-08-01 19:21:19.600179,4573.51515106,2876.60606032,4372.09090865,1219.87878776,3989.84848445,2551.03030278,3953.27272688,3263.99999967,4297.39393896,4211.87878746,4482.33333289,4018.18181778,4228.87878746,3189.8181815,4330.36363593,2542.78787853,4999.54545405,2831.27272699,4245.36363594,12.3636363624,4438.5454541,3346.42424209,4548.78787833,2225.45454523,4892.90909042,2855.99999971,4526.12121167,4005.81818142,42.0,42.0,?
2017-08-01 19:21:19.605660,4575.57575712,2893.0909088,4376.21212077,1219.87878776,3993.45454506,2551.03030278,3956.87878748,3263.99999967,4296.36363593,4211.87878746,4480.78787834,4018.18181778,4227.33333291,3189.8181815,4322.12121169,2542.78787853,5005.21212071,2831.27272699,4242.27272685,12.3636363624,4440.60606016,3346.42424209,4548.27272682,2225.45454523,4892.90909042,2855.99999971,4522.51515106,4005.81818142,42.0,42.0,?
2017-08-01 19:21:19.614242,4568.87878742,2893.0909088,4372.60606017,1215.75757564,3990.36363596,2551.03030278,3932.15151476,3263.99999967,4286.06060563,4211.87878746,4477.18181773,4018.18181778,4223.21212079,3189.8181815,4317.99999957,2542.78787853,5001.60606011,2831.27272699,4231.96969655,12.3636363624,4432.87878744,3346.42424209,4546.72727227,2225.45454523,4876.93939345,2855.99999971,4521.48484803,4005.81818142,42.0,42.0,?
2017-08-01 19:21:19.620591,4569.90909045,2893.0909088,4375.18181774,1215.75757564,3984.6969693,2551.03030278,3914.63636324,3263.99999967,4280.90909048,4211.87878746,4472.5454541,4018.18181778,4225.27272685,3189.8181815,4325.21212078,2542.78787853,4997.9999995,2831.27272699,4227.33333291,12.3636363624,4429.78787834,3346.42424209,4543.63636318,2225.45454523,4871.27272679,2855.99999971,4518.90909046,4030.54545414,42.0,42.0,?
2017-08-01 19:21:19.629709,4568.87878742,2893.0909088,4373.12121168,1215.75757564,3988.3030299,2538.66666641,3920.30302991,3263.99999967,4283.48484806,4211.87878746,4471.51515107,4018.18181778,4223.7272723,3189.8181815,4328.81818139,2542.78787853,4997.48484799,2831.27272699,4231.45454503,12.3636363624,4429.27272683,3346.42424209,4538.48484803,2225.45454523,4878.484848,2855.99999971,4513.75757531,4030.54545414,42.0,42.0,?
2017-08-01 19:21:19.636968,4562.18181773,2893.0909088,4372.60606017,1215.75757564,3992.42424203,2538.66666641,3911.54545415,3263.99999967,4282.96969654,4211.87878746,4463.27272683,4018.18181778,4211.36363594,3189.8181815,4320.57575714,2542.78787853,4992.33333283,2831.27272699,4234.03030261,12.3636363624,4429.27272683,3346.42424209,4536.42424197,2225.45454523,4881.57575709,2855.99999971,4511.69696925,4030.54545414,42.0,42.0,?
2017-08-01 19:21:19.644313,4559.09090864,2893.0909088,4373.6363632,1215.75757564,3985.21212081,2538.66666641,3899.18181779,3263.99999967,4274.7272723,4215.99999958,4450.39393895,4018.18181778,4196.93939352,3189.8181815,4311.30302987,2542.78787853,4980.48484799,2831.27272699,4226.30302988,12.3636363624,4429.27272683,3346.42424209,4537.96969652,2225.45454523,4872.30302982,2855.99999971,4507.06060561,4030.54545414,42.0,42.0,?
2017-08-01 19:21:19.653621,4565.27272682,2893.0909088,4369.51515108,1215.75757564,3979.03030263,2538.66666641,3918.24242385,3263.99999967,4273.69696927,4215.99999958,4450.90909046,4038.78787838,4204.66666625,3189.8181815,4315.93939351,2542.78787853,4982.03030253,2831.27272699,4222.69696927,12.3636363624,4427.21212077,3346.42424209,4538.99999955,2225.45454523,4869.21212073,2855.99999971,4504.99999955,4030.54545414,42.0,42.0,?
2017-08-01 19:21:19.660140,4577.63636318,2893.0909088,4375.69696926,1215.75757564,3986.24242384,2538.66666641,3937.81818142,3263.99999967,4281.424242,4215.99999958,4462.2424238,4038.78787838,4220.1212117,3189.8181815,4326.75757532,2542.78787853,4999.03030253,2831.27272699,4230.93939352,12.3636363624,4427.21212077,3346.42424209,4536.42424197,2225.45454523,4876.42424194,2855.99999971,4516.8484844,4030.54545414,42.0,42.0,?
2017-08-01 19:21:19.669804,4577.63636318,2893.0909088,4374.15151471,1215.75757564,3990.36363596,2538.66666641,3925.96969658,3263.99999967,4284.51515109,4215.99999958,4467.90909046,4038.78787838,4214.45454503,3189.8181815,4328.81818139,2559.27272702,5016.54545404,2831.27272699,4233.51515109,12.3636363624,4430.30302986,3346.42424209,4535.39393894,2225.45454523,4878.484848,2855.99999971,4519.93939349,4030.54545414,42.0,42.0,?
2017-08-01 19:21:19.677743,4568.87878742,2893.0909088,4369.51515108,1215.75757564,3988.3030299,2538.66666641,3908.96969658,3263.99999967,4287.09090866,4215.99999958,4467.39393895,4038.78787838,4196.93939352,3189.8181815,4324.18181775,2559.27272702,5014.9999995,2818.90909063,4230.424242,12.3636363624,4432.87878744,3346.42424209,4540.03030258,2225.45454523,4878.99999951,2855.99999971,4513.24242379,4030.54545414,42.0,42.0,?
2017-08-01 19:21:19.687551,4574.54545409,2893.0909088,4373.6363632,1215.75757564,3993.45454506,2538.66666641,3928.03030264,3263.99999967,4302.0303026,4215.99999958,4478.21212076,4038.78787838,4201.06060564,3189.8181815,4324.69696926,2559.27272702,5001.09090859,2818.90909063,4239.18181776,20.606060604,4437.51515107,3346.42424209,4544.1515147,2225.45454523,4887.75757527,2855.99999971,4520.96969652,4030.54545414,42.0,42.0,?
2017-08-01 19:21:19.694005,4579.69696924,2893.0909088,4370.54545411,1215.75757564,3991.90909051,2538.66666641,3946.57575718,3263.99999967,4300.48484805,4215.99999958,4485.93939349,4038.78787838,4218.57575715,3189.8181815,4331.39393896,2559.27272702,5000.57575708,2818.90909063,4244.33333291,20.606060604,4434.9393935,3362.90909057,4536.93939349,2225.45454523,4888.27272678,2855.99999971,4528.69696924,4030.54545414,42.0,42.0,?
2017-08-01 19:21:19.699486,4572.48484803,2893.0909088,4371.57575714,1215.75757564,3985.72727233,2538.66666641,3924.42424203,3263.99999967,4278.84848442,4215.99999958,4470.48484804,4038.78787838,4223.21212079,3189.8181815,4327.78787836,2559.27272702,4999.54545405,2818.90909063,4227.84848443,20.606060604,4422.57575713,3362.90909057,4530.7575753,2233.69696947,4875.90909042,2855.99999971,4513.24242379,4030.54545414,42.0,42.0,?
2017-08-01 19:21:19.707343,4564.24242379,2893.0909088,4372.09090865,1215.75757564,3985.72727233,2538.66666641,3913.0909087,3263.99999967,4280.90909048,4215.99999958,4459.66666622,4038.78787838,4224.24242382,3189.8181815,4324.18181775,2559.27272702,4991.3030298,2818.90909063,4221.15151473,20.606060604,4423.60606016,3362.90909057,4532.30302985,2233.69696947,4869.21212073,2855.99999971,4503.454545,4030.54545414,42.0,42.0,?
2017-08-01 19:21:19.714885,4564.7575753,2893.0909088,4371.57575714,1215.75757564,3983.15151475,2538.66666641,3937.30302991,3263.99999967,4294.30302987,4215.99999958,4470.99999955,4038.78787838,4239.69696927,3189.8181815,4335.51515108,2559.27272702,4999.54545405,2818.90909063,4232.48484806,28.8484848456,4438.5454541,3362.90909057,4535.90909046,2233.69696947,4874.36363588,2855.99999971,4512.21212076,4030.54545414,42.0,42.0,?
2017-08-01 19:21:19.724277,4570.93939348,2893.0909088,4376.21212077,1215.75757564,3983.66666627,2538.66666641,3943.99999961,3263.99999967,4288.12121169,4215.99999958,4480.27272682,4038.78787838,4254.63636321,3189.8181815,4345.30302987,2559.27272702,5019.63636313,2818.90909063,4238.15151473,28.8484848456,4441.63636319,3367.03030269,4534.36363591,2233.69696947,4878.484848,2855.99999971,4519.42424197,4030.54545414,42.0,42.0,?
2017-08-01 19:21:19.730655,4567.33333288,2893.0909088,4372.60606017,1215.75757564,3991.39393899,2538.66666641,3932.15151476,3263.99999967,4289.15151472,4215.99999958,4476.66666622,4038.78787838,4253.09090867,3189.8181815,4343.75757532,2559.27272702,5020.15151465,2818.90909063,4228.36363594,28.8484848456,4429.78787834,3367.03030269,4527.66666621,2233.69696947,4874.36363588,2855.99999971,4521.99999955,4030.54545414,42.0,42.0,?
2017-08-01 19:21:19.739318,4567.84848439,2893.0909088,4374.15151471,1215.75757564,4001.6969693,2538.66666641,3943.48484809,3263.99999967,4301.51515109,4215.99999958,4469.96969652,4038.78787838,4239.69696927,3189.8181815,4340.66666623,2559.27272702,5004.18181768,2818.90909063,4221.66666624,28.8484848456,4430.81818138,3367.03030269,4528.18181773,2233.69696947,4875.39393891,2855.99999971,4526.12121167,4030.54545414,42.0,42.0,?
2017-08-01 19:21:19.745776,4578.66666621,2893.0909088,4375.18181774,1215.75757564,4002.72727233,2538.66666641,3948.12121173,3263.99999967,4295.3333329,4215.99999958,4463.78787834,4038.78787838,4225.27272685,3189.8181815,4340.15151472,2559.27272702,5002.12121162,2818.90909063,4230.93939352,28.8484848456,4445.2424238,3367.03030269,4533.8484844,2233.69696947,4882.60606012,2855.99999971,4534.36363591,4030.54545414,42.0,42.0,?
2017-08-01 19:21:19.753548,4579.69696924,2893.0909088,4372.09090865,1215.75757564,4000.15151475,2538.66666641,3928.54545415,3263.99999967,4290.18181775,4215.99999958,4467.39393895,4038.78787838,4221.66666624,3189.8181815,4339.6363632,2559.27272702,5014.48484798,2818.90909063,4239.18181776,28.8484848456,4448.8484844,3367.03030269,4532.30302985,2233.69696947,4882.0909086,2855.99999971,4534.87878743,4030.54545414,42.0,42.0,?
2017-08-01 19:21:19.761741,4575.0606056,2893.0909088,4378.78787835,1215.75757564,4002.21212081,2538.66666641,3918.24242385,3263.99999967,4303.06060563,4215.99999958,4483.87878743,4038.78787838,4234.03030261,3189.8181815,4343.75757532,2559.27272702,5027.87878738,2818.90909063,4239.18181776,28.8484848456,4443.69696925,3367.03030269,4529.21212076,2233.69696947,4883.63636315,2855.99999971,4525.09090864,4030.54545414,42.0,42.0,?
2017-08-01 19:21:19.772168,4574.54545409,2893.0909088,4376.21212077,1215.75757564,3998.60606021,2538.66666641,3917.72727234,3263.99999967,4308.21212078,4215.99999958,4491.60606016,4038.78787838,4235.06060564,3189.8181815,4346.84848441,2559.27272702,5030.96969647,2818.90909063,4242.27272685,28.8484848456,4444.72727228,3367.03030269,4533.8484844,2233.69696947,4889.30302981,2855.99999971,4520.96969652,4030.54545414,42.0,42.0,?
2017-08-01 19:21:19.780641,4577.12121166,2893.0909088,4374.66666623,1215.75757564,3994.48484809,2538.66666641,3929.57575718,3263.99999967,4309.24242381,4215.99999958,4485.93939349,4038.78787838,4211.87878746,3189.8181815,4336.0303026,2559.27272702,5018.6060601,2818.90909063,4238.66666624,28.8484848456,4447.30302986,3367.03030269,4532.30302985,2233.69696947,4888.27272678,2855.99999971,4515.81818137,4030.54545414,42.0,42.0,?
2017-08-01 19:21:19.786333,4572.48484803,2893.0909088,4373.12121168,1215.75757564,3992.93939354,2538.66666641,3947.60606021,3263.99999967,4317.48484805,4215.99999958,4485.42424198,4038.78787838,4203.1212117,3189.8181815,4327.27272684,2559.27272702,5007.27272677,2818.90909063,4224.24242382,28.8484848456,4438.03030259,3367.03030269,4523.54545409,2233.69696947,4879.51515103,2855.99999971,4508.09090864,4030.54545414,42.0,42.0,?
2017-08-01 19:21:19.793381,4568.87878742,2893.0909088,4367.96969653,1215.75757564,3992.93939354,2538.66666641,3948.12121173,3263.99999967,4318.51515108,4215.99999958,4491.09090864,4038.78787838,4228.87878746,3189.8181815,4334.48484805,2559.27272702,5008.3030298,2818.90909063,4222.18181776,28.8484848456,4432.87878744,3367.03030269,4526.63636318,2233.69696947,4876.93939345,2855.99999971,4512.72727228,4030.54545414,42.0,42.0,?
2017-08-01 19:21:19.800844,4579.69696924,2893.0909088,4372.60606017,1215.75757564,4000.66666627,2538.66666641,3940.90909052,3263.99999967,4310.27272684,4215.99999958,4497.78787834,4038.78787838,4251.54545412,3189.8181815,4344.78787835,2559.27272702,5013.45454495,2818.90909063,4231.96969655,28.8484848456,4445.2424238,3367.03030269,4528.18181773,2233.69696947,4889.81818133,2855.99999971,4523.54545409,4030.54545414,42.0,42.0,?
2017-08-01 19:21:19.809567,4583.30302984,2893.0909088,4371.57575714,1215.75757564,4000.66666627,2538.66666641,3942.96969658,3263.99999967,4314.90909048,4215.99999958,4500.87878743,4038.78787838,4251.54545412,3189.8181815,4345.30302987,2559.27272702,5022.72727222,2818.90909063,4231.45454503,28.8484848456,4449.36363592,3367.03030269,4525.09090864,2233.69696947,4894.45454497,2855.99999971,4520.96969652,4030.54545414,42.0,42.0,?
2017-08-01 19:21:19.816237,4577.12121166,2893.0909088,4372.09090865,1215.75757564,3992.93939354,2538.66666641,3931.12121173,3263.99999967,4322.6363632,4215.99999958,4495.21212076,4038.78787838,4246.90909048,3189.8181815,4342.21212078,2559.27272702,5028.39393889,2818.90909063,4225.78787837,28.8484848456,4442.66666622,3367.03030269,4526.63636318,2233.69696947,4884.66666618,2855.99999971,4515.30302985,4030.54545414,42.0,42.0,?
2017-08-01 19:21:19.825226,4572.99999954,2893.0909088,4374.66666623,1215.75757564,3989.33333293,2538.66666641,3905.36363597,3263.99999967,4316.96969654,4215.99999958,4490.57575713,4038.78787838,4250.51515109,3189.8181815,4349.9393935,2559.27272702,5018.09090859,2818.90909063,4230.93939352,28.8484848456,4437.51515107,3367.03030269,4526.63636318,2233.69696947,4881.06060557,2855.99999971,4512.72727228,4030.54545414,42.0,42.0,?
2017-08-01 19:21:19.832308,4571.96969651,2893.0909088,4369.51515108,1215.75757564,3990.87878748,2538.66666641,3929.57575718,3263.99999967,4310.78787836,4215.99999958,4493.66666622,4038.78787838,4254.63636321,3189.8181815,4356.6363632,2559.27272702,5009.33333283,2818.90909063,4239.18181776,28.8484848456,4438.03030259,3367.03030269,4526.63636318,2233.69696947,4887.75757527,2855.99999971,4510.66666622,4030.54545414,42.0,42.0,?
2017-08-01 19:21:19.839577,4580.21212075,2893.0909088,4374.66666623,1215.75757564,3995.51515112,2538.66666641,3973.36363597,3263.99999967,4316.45454502,4215.99999958,4491.60606016,4038.78787838,4251.54545412,3189.8181815,4351.48484805,2559.27272702,5018.6060601,2818.90909063,4239.69696927,28.8484848456,4445.2424238,3367.03030269,4529.72727227,2233.69696947,4895.99999951,2855.99999971,4514.27272682,4030.54545414,42.0,42.0,?
2017-08-01 19:21:19.848750,4585.87878742,2893.0909088,4375.18181774,1215.75757564,3999.63636324,2538.66666641,3950.6969693,3263.99999967,4316.96969654,4215.99999958,4485.93939349,4038.78787838,4246.39393897,3189.8181815,4350.96969653,2559.27272702,5034.57575707,2818.90909063,4237.1212117,28.8484848456,4449.36363592,3367.03030269,4525.09090864,2233.69696947,4895.484848,2855.99999971,4524.06060561,4030.54545414,42.0,42.0,?
2017-08-01 19:21:19.855987,4579.18181772,2893.0909088,4368.99999956,1215.75757564,3998.60606021,2538.66666641,3924.42424203,3263.99999967,4308.7272723,4215.99999958,4489.5454541,4038.78787838,4247.424242,3189.8181815,4353.03030259,2559.27272702,5031.9999995,2818.90909063,4233.51515109,28.8484848456,4445.75757531,3367.03030269,4517.87878743,2233.69696947,4890.84848436,2855.99999971,4525.60606015,4030.54545414,42.0,42.0,?
2017-08-01 19:21:19.864645,4571.454545,2893.0909088,4370.03030259,1215.75757564,3993.45454506,2538.66666641,3935.75757536,3263.99999967,4312.84848442,4215.99999958,4496.75757531,4038.78787838,4251.03030261,3189.8181815,4349.9393935,2559.27272702,5023.75757526,2818.90909063,4230.93939352,28.8484848456,4438.5454541,3367.03030269,4521.48484803,2233.69696947,4884.15151466,2855.99999971,4519.93939349,4030.54545414,42.0,42.0,?
2017-08-01 19:21:19.874360,4574.03030257,2893.0909088,4370.54545411,1215.75757564,3991.39393899,2538.66666641,3919.27272688,3263.99999967,4322.12121169,4215.99999958,4495.21212076,4038.78787838,4246.39393897,3189.8181815,4355.09090866,2559.27272702,5027.87878738,2818.90909063,4234.54545412,28.8484848456,4435.96969653,3367.03030269,4525.60606015,2233.69696947,4878.484848,2855.99999971,4521.48484803,4030.54545414,42.0,42.0,?
2017-08-01 19:21:19.879740,4584.33333287,2893.0909088,4374.15151471,1215.75757564,4001.18181778,2538.66666641,3911.54545415,3263.99999967,4322.12121169,4215.99999958,4491.60606016,4038.78787838,4230.424242,3189.8181815,4361.27272684,2559.27272702,5027.36363586,2818.90909063,4239.69696927,28.8484848456,4442.15151471,3367.03030269,4527.1515147,2233.69696947,4883.63636315,2855.99999971,4528.69696924,4030.54545414,42.0,42.0,?
2017-08-01 19:21:19.888459,4586.39393894,2893.0909088,4372.09090865,1215.75757564,4011.48484808,2538.66666641,3962.03030263,3263.99999967,4326.75757532,4215.99999958,4496.75757531,4038.78787838,4224.24242382,3189.8181815,4361.78787835,2559.27272702,5020.66666616,2818.90909063,4247.424242,28.8484848456,4451.42424198,3367.03030269,4528.69696924,2233.69696947,4894.96969648,2855.99999971,4534.87878743,4030.54545414,42.0,42.0,?
2017-08-01 19:21:19.895111,4580.72727227,2893.0909088,4369.51515108,1215.75757564,4006.33333293,2538.66666641,3977.9999996,3263.99999967,4329.3333329,4215.99999958,4506.03030258,4038.78787838,4242.78787836,3189.8181815,4365.39393896,2559.27272702,5025.3030298,2818.90909063,4253.60606018,28.8484848456,4456.06060561,3367.03030269,4524.06060561,2233.69696947,4900.12121163,2855.99999971,4531.78787833,4030.54545414,42.0,42.0,?
2017-08-01 19:21:19.904181,4573.51515106,2893.0909088,4375.69696926,1215.75757564,3997.06060566,2538.66666641,3947.0909087,3263.99999967,4323.15151472,4215.99999958,4507.57575713,4038.78787838,4261.33333291,3189.8181815,4364.87878744,2559.27272702,5038.69696919,2818.90909063,4248.45454503,28.8484848456,4449.36363592,3367.03030269,4519.42424197,2233.69696947,4889.81818133,2855.99999971,4519.93939349,4030.54545414,42.0,42.0,?
2017-08-01 19:21:19.910412,4565.78787833,2893.0909088,4375.69696926,1215.75757564,3996.54545415,2538.66666641,3946.06060567,3263.99999967,4321.60606017,4215.99999958,4502.42424197,4038.78787838,4260.30302988,3189.8181815,4354.06060563,2559.27272702,5041.27272677,2818.90909063,4239.18181776,28.8484848456,4436.99999956,3367.03030269,4518.90909046,2233.69696947,4875.39393891,2855.99999971,4513.24242379,4030.54545414,42.0,42.0,?
2017-08-01 19:21:19.919203,4567.33333288,2893.0909088,4379.81818138,1215.75757564,3999.63636324,2538.66666641,3937.81818142,3263.99999967,4319.54545411,4215.99999958,4494.69696925,4038.78787838,4255.15151473,3189.8181815,4346.84848441,2559.27272702,5025.3030298,2818.90909063,4232.48484806,28.8484848456,4432.36363592,3367.03030269,4520.454545,2233.69696947,4872.30302982,2855.99999971,4509.63636319,4030.54545414,42.0,42.0,?
2017-08-01 19:21:19.925545,4567.33333288,2893.0909088,4377.2424238,1215.75757564,3995.51515112,2538.66666641,3913.60606021,3263.99999967,4311.30302987,4215.99999958,4486.45454501,4038.78787838,4256.69696927,3189.8181815,4346.84848441,2559.27272702,5007.78787829,2818.90909063,4230.93939352,28.8484848456,4433.39393895,3367.03030269,4521.48484803,2233.69696947,4874.36363588,2855.99999971,4509.63636319,4030.54545414,42.0,42.0,?
2017-08-01 19:21:19.933509,4562.18181773,2893.0909088,4368.99999956,1215.75757564,3990.87878748,2538.66666641,3929.06060567,3263.99999967,4309.24242381,4215.99999958,4484.39393895,4038.78787838,4250.51515109,3189.8181815,4346.3333329,2559.27272702,5011.39393889,2818.90909063,4233.51515109,28.8484848456,4432.87878744,3367.03030269,4519.42424197,2233.69696947,4872.81818133,2855.99999971,4515.81818137,4030.54545414,42.0,42.0,?
2017-08-01 19:21:19.942171,4569.39393894,2893.0909088,4374.15151471,1215.75757564,3994.9999996,2538.66666641,3962.03030263,3263.99999967,4318.51515108,4215.99999958,4486.96969652,4038.78787838,4233.51515109,3189.8181815,4343.75757532,2559.27272702,5024.27272677,2818.90909063,4232.48484806,28.8484848456,4433.39393895,3367.03030269,4516.8484844,2233.69696947,4868.69696921,2855.99999971,4515.30302985,4030.54545414,42.0,42.0,?
2017-08-01 19:21:19.949891,4577.12121166,2893.0909088,4374.15151471,1215.75757564,3994.9999996,2538.66666641,3970.27272688,3263.99999967,4329.84848442,4215.99999958,4490.06060561,4038.78787838,4222.69696927,3189.8181815,4339.6363632,2559.27272702,5021.69696919,2818.90909063,4230.424242,28.8484848456,4435.45454501,3367.03030269,4514.27272682,2233.69696947,4870.75757527,2855.99999971,4509.63636319,4030.54545414,42.0,42.0,?
2017-08-01 19:21:19.957402,4578.66666621,2893.0909088,4374.15151471,1215.75757564,3993.45454506,2538.66666641,3944.51515112,3263.99999967,4321.09090866,4215.99999958,4487.48484804,4038.78787838,4224.24242382,3189.8181815,4332.42424199,2559.27272702,5009.84848435,2818.90909063,4230.93939352,28.8484848456,4439.06060562,3367.03030269,4516.8484844,2233.69696947,4880.03030254,2855.99999971,4510.66666622,4030.54545414,42.0,42.0,?
2017-08-01 19:21:19.965703,4580.21212075,2893.0909088,4375.18181774,1215.75757564,3998.09090869,2538.66666641,3918.75757537,3263.99999967,4308.21212078,4215.99999958,4487.48484804,4038.78787838,4235.06060564,3189.8181815,4337.06060563,2559.27272702,5017.57575707,2818.90909063,4238.15151473,28.8484848456,4445.2424238,3367.03030269,4522.51515106,2233.69696947,4887.75757527,2855.99999971,4520.96969652,4030.54545414,42.0,42.0,?
2017-08-01 19:21:19.977016,4578.66666621,2893.0909088,4372.60606017,1215.75757564,3998.60606021,2538.66666641,3920.81818143,3263.99999967,4314.90909048,4215.99999958,4491.60606016,4038.78787838,4238.66666624,3189.8181815,4356.6363632,2559.27272702,5036.12121162,2818.90909063,4244.33333291,28.8484848456,4446.27272683,3367.03030269,4519.93939349,2233.69696947,4885.18181769,2855.99999971,4525.60606015,4030.54545414,42.0,42.0,?
2017-08-01 19:21:19.981183,4576.09090863,2893.0909088,4376.72727229,1215.75757564,3993.45454506,2538.66666641,3933.18181779,3263.99999967,4319.54545411,4215.99999958,4487.48484804,4038.78787838,4219.09090867,3189.8181815,4356.6363632,2559.27272702,5023.75757526,2818.90909063,4235.57575715,28.8484848456,4440.60606016,3367.03030269,4513.75757531,2233.69696947,4875.90909042,2855.99999971,4518.90909046,4030.54545414,42.0,42.0,?
2017-08-01 19:21:19.988662,4575.0606056,2893.0909088,4371.06060562,1215.75757564,3990.87878748,2538.66666641,3947.0909087,3263.99999967,4316.96969654,4215.99999958,4487.99999955,4038.78787838,4212.90909049,3189.8181815,4344.27272684,2559.27272702,5001.60606011,2818.90909063,4228.36363594,28.8484848456,4435.96969653,3367.03030269,4514.78787834,2233.69696947,4872.81818133,2855.99999971,4519.42424197,4030.54545414,42.0,42.0,?
2017-08-01 19:21:19.997917,4574.54545409,2893.0909088,4370.03030259,1215.75757564,3994.48484809,2538.66666641,3952.75757536,3263.99999967,4322.12121169,4215.99999958,4501.90909046,4038.78787838,4241.24242382,3189.8181815,4348.39393896,2559.27272702,5014.48484798,2818.90909063,4231.96969655,28.8484848456,4440.60606016,3367.03030269,4517.87878743,2233.69696947,4880.03030254,2855.99999971,4523.03030258,4030.54545414,42.0,42.0,?
2017-08-01 19:21:20.004253,4571.454545,2893.0909088,4376.21212077,1215.75757564,3996.03030263,2538.66666641,3949.15151476,3263.99999967,4324.18181775,4215.99999958,4509.63636319,4038.78787838,4269.57575715,3189.8181815,4362.30302987,2559.27272702,5043.84848434,2818.90909063,4240.7272723,28.8484848456,4449.36363592,3367.03030269,4514.78787834,2233.69696947,4887.24242375,2855.99999971,4520.454545,4030.54545414,42.0,42.0,?
2017-08-01 19:21:20.012920,4565.78787833,2893.0909088,4372.60606017,1215.75757564,3990.87878748,2538.66666641,3939.87878748,3263.99999967,4317.99999957,4215.99999958,4506.03030258,4038.78787838,4276.78787836,3189.8181815,4366.42424199,2559.27272702,5039.72727222,2818.90909063,4242.27272685,28.8484848456,4442.66666622,3367.03030269,4515.81818137,2233.69696947,4880.54545406,2855.99999971,4515.30302985,4030.54545414,42.0,42.0,?
2017-08-01 19:21:20.020303,4560.63636318,2893.0909088,4376.21212077,1215.75757564,3987.27272687,2538.66666641,3925.45454506,3263.99999967,4316.96969654,4215.99999958,4499.8484844,4038.78787838,4271.12121169,3189.8181815,4359.21212078,2559.27272702,5015.51515101,2818.90909063,4229.90909049,28.8484848456,4425.15151471,3367.03030269,4514.78787834,2233.69696947,4861.484848,2855.99999971,4504.48484803,4030.54545414,42.0,42.0,?
2017-08-01 19:21:20.027640,4559.09090864,2893.0909088,4376.21212077,1215.75757564,3988.3030299,2538.66666641,3916.18181779,3263.99999967,4315.93939351,4215.99999958,4491.60606016,4038.78787838,4265.45454503,3189.8181815,4356.12121169,2559.27272702,5014.9999995,2818.90909063,4226.30302988,28.8484848456,4422.06060562,3367.03030269,4511.18181773,2233.69696947,4857.36363588,2855.99999971,4499.8484844,4030.54545414,42.0,42.0,?
2017-08-01 19:21:20.035058,4565.78787833,2893.0909088,4374.66666623,1215.75757564,3995.51515112,2538.66666641,3915.15151476,3263.99999967,4309.24242381,4215.99999958,4478.21212076,4038.78787838,4257.21212079,3189.8181815,4353.54545411,2559.27272702,5023.75757526,2818.90909063,4239.18181776,28.8484848456,4439.06060562,3367.03030269,4517.36363591,2233.69696947,4876.93939345,2855.99999971,4512.72727228,4030.54545414,42.0,42.0,?
2017-08-01 19:21:20.042780,4572.48484803,2893.0909088,4377.75757532,1215.75757564,3996.54545415,2538.66666641,3926.48484809,3263.99999967,4303.06060563,4215.99999958,4471.51515107,4038.78787838,4238.15151473,3189.8181815,4345.81818138,2559.27272702,5012.42424192,2818.90909063,4242.27272685,28.8484848456,4446.27272683,3367.03030269,4520.96969652,2233.69696947,4888.27272678,2855.99999971,4519.42424197,4030.54545414,42.0,42.0,?
2017-08-01 19:21:20.051495,4568.36363591,2893.0909088,4375.18181774,1215.75757564,3982.12121172,2538.66666641,3943.99999961,3263.99999967,4305.12121169,4215.99999958,4476.66666622,4038.78787838,4223.7272723,3189.8181815,4343.75757532,2559.27272702,5002.63636314,2818.90909063,4232.48484806,28.8484848456,4434.9393935,3367.03030269,4512.72727228,2233.69696947,4875.39393891,2855.99999971,4509.63636319,4030.54545414,42.0,42.0,?
2017-08-01 19:21:20.059823,4568.36363591,2893.0909088,4377.2424238,1215.75757564,3978.51515112,2538.66666641,3942.96969658,3263.99999967,4305.63636321,4215.99999958,4489.03030258,4038.78787838,4232.48484806,3189.8181815,4349.42424199,2559.27272702,5011.90909041,2818.90909063,4225.78787837,28.8484848456,4425.66666622,3367.03030269,4512.72727228,2233.69696947,4867.66666618,2855.99999971,4505.51515106,4030.54545414,42.0,42.0,?
2017-08-01 19:21:20.067164,4575.57575712,2893.0909088,4377.2424238,1215.75757564,3988.81818142,2538.66666641,3920.30302991,3263.99999967,4301.51515109,4215.99999958,4497.27272682,4038.78787838,4249.99999958,3189.8181815,4356.6363632,2559.27272702,5027.87878738,2818.90909063,4227.33333291,28.8484848456,4430.81818138,3367.03030269,4517.36363591,2233.69696947,4877.45454497,2855.99999971,4514.78787834,4030.54545414,42.0,42.0,?
2017-08-01 19:21:20.076144,4580.72727227,2893.0909088,4375.69696926,1215.75757564,3991.39393899,2538.66666641,3919.27272688,3263.99999967,4302.54545412,4215.99999958,4495.72727228,4038.78787838,4249.48484806,3189.8181815,4360.75757532,2559.27272702,5032.51515101,2818.90909063,4234.54545412,28.8484848456,4446.27272683,3367.03030269,4517.36363591,2233.69696947,4889.30302981,2855.99999971,4522.51515106,4030.54545414,42.0,42.0,?
2017-08-01 19:21:20.082672,4581.7575753,2893.0909088,4377.75757532,1215.75757564,3989.33333293,2538.66666641,3932.66666627,3263.99999967,4310.78787836,4215.99999958,4488.51515107,4038.78787838,4234.03030261,3189.8181815,4355.09090866,2559.27272702,5019.12121162,2818.90909063,4238.66666624,28.8484848456,4448.8484844,3367.03030269,4516.8484844,2233.69696947,4889.81818133,2855.99999971,4519.93939349,4030.54545414,42.0,42.0,?
2017-08-01 19:21:20.091373,4576.60606015,2893.0909088,4373.6363632,1215.75757564,3985.72727233,2538.66666641,3919.7878784,3263.99999967,4306.15151472,4215.99999958,4476.1515147,4038.78787838,4220.1212117,3189.8181815,4341.69696926,2559.27272702,5010.36363586,2818.90909063,4232.99999958,28.8484848456,4432.36363592,3367.03030269,4515.81818137,2233.69696947,4878.484848,2855.99999971,4513.75757531,4030.54545414,42.0,42.0,?
2017-08-01 19:21:20.097516,4578.15151469,2893.0909088,4377.2424238,1215.75757564,3983.66666627,2538.66666641,3916.69696931,3263.99999967,4290.69696927,4215.99999958,4470.99999955,4038.78787838,4221.15151473,3189.8181815,4339.12121169,2559.27272702,5017.57575707,2818.90909063,4226.30302988,28.8484848456,4425.66666622,3367.03030269,4514.27272682,2233.69696947,4875.39393891,2855.99999971,4512.72727228,4030.54545414,42.0,42.0,?
2017-08-01 19:21:20.105605,4580.21212075,2893.0909088,4377.75757532,1215.75757564,3988.3030299,2538.66666641,3934.21212082,3263.99999967,4297.39393896,4215.99999958,4484.39393895,4038.78787838,4240.21212079,3189.8181815,4353.54545411,2559.27272702,5028.39393889,2818.90909063,4230.424242,28.8484848456,4435.45454501,3367.03030269,4514.78787834,2233.69696947,4882.0909086,2855.99999971,4517.87878743,4030.54545414,42.0,42.0,?
2017-08-01 19:21:20.118485,4575.0606056,2888.96969668,4371.06060562,1215.75757564,3990.36363596,2538.66666641,3931.12121173,3263.99999967,4309.24242381,4215.99999958,4490.57575713,4038.78787838,4251.54545412,3189.8181815,4359.21212078,2559.27272702,5025.3030298,2818.90909063,4235.06060564,28.8484848456,4435.96969653,3367.03030269,4514.78787834,2233.69696947,4878.99999951,2855.99999971,4517.36363591,4030.54545414,42.0,42.0,?
2017-08-01 19:21:20.123560,4566.30302985,2888.96969668,4372.60606017,1186.90909079,3981.60606021,2538.66666641,3918.24242385,3263.99999967,4295.84848442,4215.99999958,4475.63636319,4038.78787838,4243.81818139,3189.8181815,4343.75757532,2559.27272702,5011.39393889,2818.90909063,4221.66666624,28.8484848456,4422.06060562,3367.03030269,4508.60606016,2233.69696947,4862.51515103,2855.99999971,4504.99999955,4030.54545414,42.0,42.0,?
2017-08-01 19:21:20.129263,4555.99999954,2888.96969668,4367.96969653,1186.90909079,3971.81818142,2538.66666641,3920.30302991,3263.99999967,4282.45454503,4215.99999958,4462.2424238,4038.78787838,4229.90909049,3189.8181815,4328.81818139,2559.27272702,5001.60606011,2818.90909063,4203.63636322,28.8484848456,4405.57575714,3367.03030269,4502.93939349,2233.69696947,4846.54545406,2855.99999971,4498.30302985,4030.54545414,42.0,42.0,?
2017-08-01 19:21:20.138651,4554.454545,2888.96969668,4368.48484805,1186.90909079,3972.84848445,2542.78787853,3914.12121173,3263.99999967,4286.06060563,4215.99999958,4457.60606016,4038.78787838,4217.03030261,3189.8181815,4322.12121169,2559.27272702,4986.15151465,2818.90909063,4197.96969655,28.8484848456,4400.9393935,3367.03030269,4502.42424197,2233.69696947,4846.54545406,2855.99999971,4495.21212076,4030.54545414,42.0,42.0,?
2017-08-01 19:21:20.150459,4557.03030257,2888.96969668,4373.12121168,1186.90909079,3976.96969657,2542.78787853,3884.24242385,3268.12121179,4287.60606018,4215.99999958,4453.48484804,4038.78787838,4211.87878746,3189.8181815,4321.09090866,2559.27272702,4976.36363587,2818.90909063,4203.1212117,28.8484848456,4409.18181774,3367.03030269,4506.54545409,2233.69696947,4853.75757527,2855.99999971,4492.63636319,4030.54545414,42.0,42.0,?
2017-08-01 19:21:20.153260,4552.90909045,2888.96969668,4368.48484805,1186.90909079,3973.87878748,2542.78787853,3881.15151476,3268.12121179,4276.78787836,4.1212121208,4453.48484804,4038.78787838,4216.51515109,3189.8181815,4322.12121169,2559.27272702,4993.36363586,2818.90909063,4208.27272685,28.8484848456,4411.2424238,3367.03030269,4509.63636319,2233.69696947,4852.72727224,2855.99999971,4497.78787834,4030.54545414,42.0,42.0,?
2017-08-01 19:21:20.162480,4549.81818136,2888.96969668,4370.54545411,1186.90909079,3971.30302991,2542.78787853,3923.90909052,3268.12121179,4270.09090866,4.1212121208,4461.21212077,4104.72727232,4217.54545412,3189.8181815,4321.09090866,2559.27272702,5005.72727223,2818.90909063,4206.72727231,28.8484848456,4405.06060562,3367.03030269,4509.63636319,2233.69696947,4848.60606012,2855.99999971,4499.8484844,4030.54545414,42.0,42.0,?
2017-08-01 19:21:20.168367,4548.27272682,2888.96969668,4369.51515108,1186.90909079,3968.72727233,2542.78787853,3953.27272688,3268.12121179,4283.48484806,4.1212121208,4472.5454541,4104.72727232,4211.87878746,3189.8181815,4320.06060563,2559.27272702,4993.36363586,2818.90909063,4198.99999958,28.8484848456,4407.6363632,3367.03030269,4506.03030258,2233.69696947,4846.54545406,2855.99999971,4495.21212076,4030.54545414,42.0,42.0,?
2017-08-01 19:21:20.177161,4547.7575753,2888.96969668,4367.96969653,1186.90909079,3967.18181779,2542.78787853,3920.81818143,3268.12121179,4294.81818139,4.1212121208,4477.18181773,4104.72727232,4203.63636322,3189.8181815,4320.57575714,2567.51515126,4978.93939344,2818.90909063,4192.30302988,28.8484848456,4412.78787835,3367.03030269,4500.36363591,2233.69696947,4846.54545406,2855.99999971,4490.57575713,4030.54545414,42.0,42.0,?
2017-08-01 19:21:20.184590,4551.36363591,2888.96969668,4370.03030259,1186.90909079,3970.78787839,2542.78787853,3894.54545416,3268.12121179,4291.7272723,4.1212121208,4476.1515147,4104.72727232,4203.63636322,3189.8181815,4325.72727229,2567.51515126,4986.66666617,2855.99999971,4196.93939352,28.8484848456,4411.2424238,3367.03030269,4499.8484844,2233.69696947,4846.03030255,2855.99999971,4495.21212076,4030.54545414,42.0,42.0,?
2017-08-01 19:21:20.192214,4555.48484803,2888.96969668,4367.45454502,1186.90909079,3972.84848445,2542.78787853,3926.48484809,3268.12121179,4292.24242381,4.1212121208,4477.69696925,4104.72727232,4218.06060564,3189.8181815,4337.06060563,2567.51515126,5000.57575708,2855.99999971,4208.27272685,49.4545454496,4412.78787835,3367.03030269,4505.51515106,2233.69696947,4850.15151467,2855.99999971,4508.09090864,4030.54545414,42.0,42.0,?
2017-08-01 19:21:20.203228,4557.03030257,2888.96969668,4367.96969653,1186.90909079,3970.78787839,2542.78787853,3936.27272688,3268.12121179,4293.78787836,4.1212121208,4474.09090864,4104.72727232,4225.78787837,3189.8181815,4333.96969654,2567.51515126,4990.78787829,2855.99999971,4207.75757534,49.4545454496,4414.84848441,3383.51515118,4507.57575713,2233.69696947,4853.24242376,2855.99999971,4504.99999955,4030.54545414,42.0,42.0,?
2017-08-01 19:21:20.207238,4552.90909045,2888.96969668,4367.45454502,1186.90909079,3968.21212082,2542.78787853,3911.03030264,3268.12121179,4292.75757533,4.1212121208,4470.99999955,4104.72727232,4222.69696927,3189.8181815,4321.60606017,2567.51515126,4982.03030253,2855.99999971,4199.5151511,49.4545454496,4406.60606017,3383.51515118,4502.93939349,2237.81818159,4848.09090861,2855.99999971,4491.09090864,4030.54545414,42.0,42.0,?
2017-08-01 19:21:20.215529,4551.87878742,2888.96969668,4367.96969653,1186.90909079,3967.18181779,2542.78787853,3920.30302991,3268.12121179,4295.3333329,4.1212121208,4473.57575713,4104.72727232,4232.48484806,3189.8181815,4325.21212078,2567.51515126,4996.45454495,2855.99999971,4198.99999958,49.4545454496,4402.48484804,3383.51515118,4499.8484844,2237.81818159,4848.09090861,2884.84848456,4487.99999955,4030.54545414,42.0,42.0,?
2017-08-01 19:21:20.224568,4553.93939348,2888.96969668,4368.99999956,1186.90909079,3967.6969693,2542.78787853,3930.0909087,3268.12121179,4292.75757533,4.1212121208,4468.42424198,4104.72727232,4239.69696927,3189.8181815,4329.3333329,2567.51515126,4997.48484799,2855.99999971,4201.57575716,57.6969696912,4408.66666623,3383.51515118,4504.48484803,2237.81818159,4854.27272679,2884.84848456,4492.63636319,4030.54545414,42.0,42.0,?
2017-08-01 19:21:20.232373,4554.96969651,2888.96969668,4366.42424199,1186.90909079,3967.6969693,2542.78787853,3901.75757537,3268.12121179,4285.0303026,4.1212121208,4458.12121168,4104.72727232,4228.36363594,3189.8181815,4323.66666623,2567.51515126,4986.66666617,2855.99999971,4200.03030261,57.6969696912,4409.18181774,3387.6363633,4510.1515147,2237.81818159,4857.36363588,2884.84848456,4493.1515147,4030.54545414,42.0,42.0,?
2017-08-01 19:21:20.239617,4558.57575712,2888.96969668,4373.6363632,1186.90909079,3968.21212082,2542.78787853,3906.90909052,3268.12121179,4287.09090866,4.1212121208,4454.51515107,4104.72727232,4214.45454503,3189.8181815,4321.09090866,2567.51515126,4993.87878738,2855.99999971,4196.93939352,57.6969696912,4410.21212077,3387.6363633,4508.60606016,2237.81818159,4858.39393891,2884.84848456,4492.63636319,4030.54545414,42.0,42.0,?
2017-08-01 19:21:20.247679,4554.96969651,2888.96969668,4373.12121168,1186.90909079,3964.60606021,2542.78787853,3928.03030264,3268.12121179,4291.21212078,4.1212121208,4449.87878743,4104.72727232,4208.78787837,3189.8181815,4321.60606017,2567.51515126,4995.42424192,2855.99999971,4198.48484806,57.6969696912,4413.81818138,3387.6363633,4500.36363591,2237.81818159,4858.39393891,2884.84848456,4492.12121167,4030.54545414,42.0,42.0,?
2017-08-01 19:21:20.256654,4547.7575753,2888.96969668,4367.45454502,1186.90909079,3960.48484809,2542.78787853,3907.93939355,3268.12121179,4281.93939351,4.1212121208,4447.81818137,4104.72727232,4205.18181776,3189.8181815,4317.48484805,2567.51515126,4979.45454496,2855.99999971,4197.96969655,57.6969696912,4408.15151471,3387.6363633,4497.78787834,2237.81818159,4856.33333285,2884.84848456,4491.09090864,4030.54545414,42.0,42.0,?
2017-08-01 19:21:20.262875,4549.81818136,2888.96969668,4371.57575714,1186.90909079,3962.54545415,2542.78787853,3903.81818143,3268.12121179,4276.27272685,4.1212121208,4459.66666622,4104.72727232,4206.21212079,3189.8181815,4317.99999957,2567.51515126,4985.63636314,2855.99999971,4198.99999958,57.6969696912,4403.51515107,3387.6363633,4502.42424197,2237.81818159,4855.30302982,2884.84848456,4492.12121167,4030.54545414,42.0,42.0,?
2017-08-01 19:21:20.269539,4548.78787833,2888.96969668,4368.99999956,1186.90909079,3962.03030263,2542.78787853,3916.18181779,3268.12121179,4283.48484806,4.1212121208,4467.39393895,4104.72727232,4210.33333291,3189.8181815,4324.18181775,2567.51515126,5001.09090859,2855.99999971,4205.18181776,57.6969696912,4409.18181774,3387.6363633,4504.48484803,2237.81818159,4851.1818177,2884.84848456,4494.18181773,4030.54545414,42.0,42.0,?
2017-08-01 19:21:20.278695,4545.18181773,2888.96969668,4372.09090865,1186.90909079,3963.57575718,2542.78787853,3914.12121173,3268.12121179,4287.60606018,4.1212121208,4464.81818137,4104.72727232,4205.69696928,3189.8181815,4320.57575714,2567.51515126,4991.3030298,2855.99999971,4200.54545413,57.6969696912,4409.69696926,3387.6363633,4499.33333288,2237.81818159,4847.06060558,2884.84848456,4491.60606016,4030.54545414,42.0,42.0,?
2017-08-01 19:21:20.285718,4541.57575712,2888.96969668,4370.54545411,1186.90909079,3964.60606021,2542.78787853,3913.60606021,3268.12121179,4281.93939351,4.1212121208,4459.15151471,4104.72727232,4204.66666625,3189.8181815,4316.45454502,2567.51515126,4980.48484799,2855.99999971,4190.75757534,57.6969696912,4399.39393895,3387.6363633,4494.18181773,2237.81818159,4846.54545406,2884.84848456,4486.45454501,4030.54545414,42.0,42.0,?
2017-08-01 19:21:20.298057,4543.12121167,2888.96969668,4364.87878744,1186.90909079,3963.06060566,2542.78787853,3912.06060567,3268.12121179,4275.24242381,4.1212121208,4455.5454541,4104.72727232,4218.06060564,3189.8181815,4321.09090866,2567.51515126,4985.63636314,2855.99999971,4193.33333291,57.6969696912,4399.39393895,3387.6363633,4498.81818137,2237.81818159,4848.09090861,2884.84848456,4486.96969652,4030.54545414,42.0,42.0,?
2017-08-01 19:21:20.304598,4551.36363591,2888.96969668,4371.06060562,1186.90909079,3964.60606021,2542.78787853,3911.54545415,3268.12121179,4276.27272685,4.1212121208,4462.75757531,4104.72727232,4226.8181814,3189.8181815,4326.75757532,2567.51515126,4991.3030298,2855.99999971,4200.03030261,57.6969696912,4406.09090865,3387.6363633,4503.454545,2237.81818159,4852.21212073,2884.84848456,4493.1515147,4030.54545414,42.0,42.0,?
2017-08-01 19:21:20.308913,4549.30302985,2888.96969668,4369.51515108,1186.90909079,3962.54545415,2542.78787853,3907.93939355,3268.12121179,4284.51515109,4.1212121208,4473.57575713,4104.72727232,4223.21212079,3189.8181815,4326.24242381,2567.51515126,4994.39393889,2855.99999971,4199.5151511,57.6969696912,4404.03030259,3387.6363633,4499.33333288,2237.81818159,4853.24242376,2884.84848456,4493.66666622,4030.54545414,42.0,42.0,?
2017-08-01 19:21:20.317194,4543.12121167,2888.96969668,4369.51515108,1186.90909079,3962.03030263,2542.78787853,3891.45454507,3268.12121179,4287.09090866,4.1212121208,4470.99999955,4104.72727232,4220.1212117,3189.8181815,4319.0303026,2567.51515126,5000.06060556,2855.99999971,4198.99999958,57.6969696912,4406.60606017,3387.6363633,4496.75757531,2237.81818159,4853.24242376,2884.84848456,4491.09090864,4030.54545414,42.0,42.0,?
2017-08-01 19:21:20.326598,4550.33333288,2888.96969668,4371.57575714,1186.90909079,3968.72727233,2542.78787853,3898.66666628,3268.12121179,4285.0303026,4.1212121208,4462.75757531,4104.72727232,4223.7272723,3189.8181815,4316.45454502,2567.51515126,4999.03030253,2855.99999971,4206.21212079,57.6969696912,4418.45454501,3387.6363633,4496.24242379,2237.81818159,4860.96969648,2884.84848456,4499.33333288,4030.54545414,42.0,42.0,?
2017-08-01 19:21:20.336775,4557.03030257,2888.96969668,4367.45454502,1186.90909079,3972.84848445,2542.78787853,3922.87878749,3268.12121179,4283.48484806,4.1212121208,4458.63636319,4104.72727232,4220.63636321,3189.8181815,4320.06060563,2567.51515126,4987.6969692,2855.99999971,4209.8181814,57.6969696912,4417.9393935,3387.6363633,4492.12121167,2237.81818159,4866.12121163,2884.84848456,4508.60606016,4030.54545414,42.0,42.0,?
2017-08-01 19:21:20.340659,4552.90909045,2888.96969668,4370.03030259,1186.90909079,3971.30302991,2542.78787853,3931.12121173,3268.12121179,4277.81818139,4.1212121208,4447.81818137,4104.72727232,4202.09090867,3189.8181815,4315.93939351,2567.51515126,4978.42424193,2855.99999971,4205.18181776,57.6969696912,4406.09090865,3387.6363633,4491.09090864,2237.81818159,4858.39393891,2884.84848456,4505.51515106,4030.54545414,42.0,42.0,?
2017-08-01 19:21:20.349586,4546.72727227,2888.96969668,4366.42424199,1186.90909079,3963.06060566,2542.78787853,3925.96969658,3268.12121179,4273.69696927,4.1212121208,4439.57575713,4104.72727232,4188.18181776,3189.8181815,4305.63636321,2567.51515126,4976.87878738,2855.99999971,4204.66666625,57.6969696912,4402.99999956,3387.6363633,4493.1515147,2237.81818159,4852.21212073,2884.84848456,4504.48484803,4030.54545414,42.0,42.0,?
2017-08-01 19:21:20.358280,4549.30302985,2888.96969668,4365.39393896,1186.90909079,3961.51515112,2542.78787853,3911.03030264,3268.12121179,4272.15151472,4.1212121208,4443.69696925,4104.72727232,4194.36363594,3189.8181815,4299.96969654,2567.51515126,4971.72727223,2855.99999971,4203.1212117,57.6969696912,4407.12121168,3387.6363633,4489.03030258,2237.81818159,4855.81818133,2884.84848456,4503.96969652,4030.54545414,42.0,42.0,?
2017-08-01 19:21:20.366470,4549.81818136,2888.96969668,4369.51515108,1186.90909079,3968.21212082,2542.78787853,3906.393939,3268.12121179,4270.60606018,4.1212121208,4451.93939349,4104.72727232,4206.72727231,3189.8181815,4303.57575715,2567.51515126,4973.78787829,2855.99999971,4193.33333291,57.6969696912,4405.06060562,3387.6363633,4485.93939349,2237.81818159,4856.33333285,2884.84848456,4497.27272682,4030.54545414,42.0,42.0,?
2017-08-01 19:21:20.374350,4542.09090864,2888.96969668,4368.48484805,1186.90909079,3966.15151475,2542.78787853,3919.7878784,3268.12121179,4273.69696927,4.1212121208,4459.66666622,4104.72727232,4207.24242382,3189.8181815,4316.45454502,2567.51515126,4996.96969647,2855.99999971,4193.33333291,57.6969696912,4400.9393935,3387.6363633,4490.06060561,2237.81818159,4852.21212073,2884.84848456,4494.18181773,4030.54545414,42.0,42.0,?
2017-08-01 19:21:20.381845,4541.06060561,2888.96969668,4370.54545411,1186.90909079,3956.87878748,2542.78787853,3911.03030264,3268.12121179,4275.75757533,4.1212121208,4462.2424238,4104.72727232,4189.21212079,3189.8181815,4320.57575714,2567.51515126,5001.60606011,2855.99999971,4200.03030261,57.6969696912,4399.39393895,3387.6363633,4492.12121167,2237.81818159,4850.66666618,2884.84848456,4491.09090864,4030.54545414,42.0,42.0,?
2017-08-01 19:21:20.390014,4544.1515147,2888.96969668,4364.87878744,1186.90909079,3955.33333294,2542.78787853,3893.51515113,3268.12121179,4273.69696927,4.1212121208,4457.60606016,4104.72727232,4170.66666625,3189.8181815,4313.87878745,2567.51515126,4980.9999995,2855.99999971,4200.54545413,57.6969696912,4398.87878744,3387.6363633,4487.48484804,2237.81818159,4849.63636315,2884.84848456,4486.96969652,4030.54545414,42.0,42.0,?
2017-08-01 19:21:20.395544,4547.7575753,2888.96969668,4366.42424199,1186.90909079,3964.60606021,2542.78787853,3909.99999961,3268.12121179,4277.81818139,4.1212121208,4454.51515107,4104.72727232,4176.84848443,3189.8181815,4310.78787836,2567.51515126,4974.30302981,2855.99999971,4203.1212117,57.6969696912,4405.06060562,3387.6363633,4487.99999955,2237.81818159,4854.7878783,2884.84848456,4492.63636319,4030.54545414,42.0,42.0,?
2017-08-01 19:21:20.405574,4546.21212076,2888.96969668,4374.15151471,1186.90909079,3968.72727233,2542.78787853,3922.87878749,3268.12121179,4278.84848442,4.1212121208,4455.03030258,4104.72727232,4192.30302988,3189.8181815,4308.21212078,2567.51515126,4976.87878738,2855.99999971,4206.72727231,57.6969696912,4410.72727229,3387.6363633,4490.06060561,2237.81818159,4859.93939345,2884.84848456,4498.81818137,4030.54545414,42.0,42.0,?
2017-08-01 19:21:20.410607,4541.06060561,2888.96969668,4366.42424199,1186.90909079,3959.96969657,2542.78787853,3907.42424203,3268.12121179,4265.45454503,4.1212121208,4453.48484804,4104.72727232,4197.45454503,3189.8181815,4298.93939351,2567.51515126,4972.75757526,2855.99999971,4200.54545413,57.6969696912,4405.06060562,3387.6363633,4481.81818137,2237.81818159,4852.72727224,2884.84848456,4494.69696925,4030.54545414,42.0,42.0,?
2017-08-01 19:21:20.421566,4544.1515147,2888.96969668,4366.42424199,1186.90909079,3957.393939,2542.78787853,3905.36363597,3268.12121179,4262.87878745,4.1212121208,4449.87878743,4104.72727232,4201.06060564,3189.8181815,4292.24242381,2567.51515126,4974.81818132,2855.99999971,4195.39393897,57.6969696912,4399.90909047,3387.6363633,4477.18181773,2237.81818159,4844.99999952,2884.84848456,4486.96969652,4030.54545414,42.0,42.0,?
2017-08-01 19:21:20.426524,4542.60606015,2888.96969668,4368.99999956,1186.90909079,3962.03030263,2542.78787853,3925.45454506,3268.12121179,4286.06060563,4.1212121208,4451.93939349,4104.72727232,4206.21212079,3189.8181815,4300.48484805,2567.51515126,4986.66666617,2855.99999971,4202.09090867,57.6969696912,4400.42424198,3387.6363633,4483.36363592,2237.81818159,4847.57575709,2884.84848456,4489.03030258,4030.54545414,42.0,42.0,?
2017-08-01 19:21:20.436040,4537.96969652,2888.96969668,4365.39393896,1186.90909079,3964.60606021,2542.78787853,3935.75757536,3268.12121179,4295.84848442,4.1212121208,4452.45454501,4104.72727232,4203.63636322,3189.8181815,4314.39393896,2567.51515126,4988.21212071,2855.99999971,4210.33333291,57.6969696912,4405.06060562,3387.6363633,4487.99999955,2237.81818159,4854.7878783,2884.84848456,4500.36363591,4030.54545414,42.0,42.0,?
2017-08-01 19:21:20.443482,4544.1515147,2888.96969668,4366.42424199,1186.90909079,3967.18181779,2542.78787853,3917.72727234,3268.12121179,4281.424242,4.1212121208,4448.8484844,4104.72727232,4203.1212117,3189.8181815,4320.06060563,2567.51515126,4982.54545405,2855.99999971,4212.39393897,57.6969696912,4413.81818138,3387.6363633,4485.42424198,2237.81818159,4858.39393891,2884.84848456,4506.54545409,4030.54545414,42.0,42.0,?
2017-08-01 19:21:20.450149,4545.18181773,2888.96969668,4363.84848441,1186.90909079,3967.18181779,2542.78787853,3897.63636325,3268.12121179,4272.15151472,4.1212121208,4446.78787834,4104.72727232,4209.8181814,3189.8181815,4317.99999957,2567.51515126,4985.12121162,2855.99999971,4208.27272685,57.6969696912,4415.36363592,3387.6363633,4483.87878743,2237.81818159,4855.30302982,2884.84848456,4499.8484844,4030.54545414,42.0,42.0,?
2017-08-01 19:21:20.458619,4540.54545409,2888.96969668,4366.9393935,1186.90909079,3963.06060566,2542.78787853,3902.7878784,3268.12121179,4273.18181775,4.1212121208,4453.48484804,4104.72727232,4209.30302988,3189.8181815,4313.87878745,2567.51515126,4982.03030253,2855.99999971,4199.5151511,57.6969696912,4407.12121168,3387.6363633,4482.33333289,2237.81818159,4851.69696921,2884.84848456,4489.03030258,4030.54545414,42.0,42.0,?
2017-08-01 19:21:20.466465,4535.90909046,2888.96969668,4366.42424199,1186.90909079,3956.87878748,2542.78787853,3916.69696931,3268.12121179,4276.27272685,4.1212121208,4465.33333289,4104.72727232,4204.15151473,3189.8181815,4310.27272684,2567.51515126,4973.27272678,2855.99999971,4196.424242,57.6969696912,4400.9393935,3387.6363633,4478.21212076,2237.81818159,4847.57575709,2884.84848456,4483.36363592,4030.54545414,42.0,42.0,?
2017-08-01 19:21:20.472543,4532.30302985,2888.96969668,4362.81818138,1186.90909079,3954.81818142,2542.78787853,3921.84848446,3268.12121179,4283.48484806,4.1212121208,4469.96969652,4104.72727232,4201.06060564,3189.8181815,4310.27272684,2567.51515126,4978.93939344,2855.99999971,4199.5151511,57.6969696912,4398.36363592,3387.6363633,4477.18181773,2237.81818159,4842.93939346,2884.84848456,4482.8484844,4030.54545414,42.0,42.0,?
2017-08-01 19:21:20.481013,4531.27272682,2888.96969668,4366.9393935,1186.90909079,3960.9999996,2542.78787853,3911.54545415,3268.12121179,4289.66666624,4.1212121208,4468.93939349,4104.72727232,4198.99999958,3189.8181815,4313.87878745,2567.51515126,4989.75757526,2855.99999971,4201.06060564,57.6969696912,4398.87878744,3387.6363633,4481.81818137,2237.81818159,4845.51515103,2884.84848456,4484.39393895,4030.54545414,42.0,42.0,?
2017-08-01 19:21:20.491401,4536.42424197,2888.96969668,4365.39393896,1186.90909079,3961.51515112,2542.78787853,3901.75757537,3268.12121179,4288.63636321,4.1212121208,4467.90909046,4104.72727232,4196.424242,3189.8181815,4315.42424199,2567.51515126,4979.45454496,2855.99999971,4206.72727231,57.6969696912,4402.99999956,3387.6363633,4485.42424198,2237.81818159,4853.24242376,2884.84848456,4487.99999955,4030.54545414,42.0,42.0,?
2017-08-01 19:21:20.498868,4548.27272682,2888.96969668,4367.45454502,1186.90909079,3958.93939354,2542.78787853,3919.7878784,3268.12121179,4282.96969654,4.1212121208,4464.30302986,4104.72727232,4197.45454503,3189.8181815,4309.75757533,2567.51515126,4970.18181768,2855.99999971,4209.30302988,57.6969696912,4406.60606017,3387.6363633,4481.30302985,2237.81818159,4857.36363588,2884.84848456,4487.99999955,4030.54545414,42.0,42.0,?
2017-08-01 19:21:20.505155,4552.39393894,2888.96969668,4370.03030259,1186.90909079,3960.9999996,2542.78787853,3935.75757536,3268.12121179,4281.424242,4.1212121208,4463.78787834,4104.72727232,4205.69696928,3189.8181815,4305.63636321,2567.51515126,4984.60606011,2855.99999971,4200.54545413,57.6969696912,4407.12121168,3387.6363633,4474.09090864,2237.81818159,4853.75757527,2884.84848456,4493.66666622,4030.54545414,42.0,42.0,?
2017-08-01 19:21:20.514846,4545.69696924,2888.96969668,4366.9393935,1186.90909079,3966.15151475,2542.78787853,3923.90909052,3268.12121179,4281.93939351,4.1212121208,4464.81818137,4104.72727232,4213.93939352,3189.8181815,4308.7272723,2567.51515126,4987.18181768,2855.99999971,4199.5151511,57.6969696912,4405.57575714,3387.6363633,4474.09090864,2237.81818159,4849.63636315,2884.84848456,4508.09090864,4030.54545414,42.0,42.0,?
2017-08-01 19:21:20.524810,4546.21212076,2888.96969668,4369.51515108,1186.90909079,3972.33333294,2542.78787853,3916.69696931,3268.12121179,4279.36363594,4.1212121208,4462.75757531,4104.72727232,4217.03030261,3189.8181815,4313.87878745,2567.51515126,4973.78787829,2855.99999971,4212.90909049,57.6969696912,4407.6363632,3387.6363633,4477.18181773,2237.81818159,4852.21212073,2884.84848456,4512.72727228,4030.54545414,42.0,42.0,?
2017-08-01 19:21:20.529000,4551.87878742,2888.96969668,4364.87878744,1186.90909079,3972.33333294,2542.78787853,3923.393939,3268.12121179,4279.36363594,4.1212121208,4462.75757531,4104.72727232,4219.60606018,3189.8181815,4323.66666623,2567.51515126,4986.66666617,2855.99999971,4221.66666624,57.6969696912,4412.27272683,3387.6363633,4477.18181773,2237.81818159,4859.42424194,2884.84848456,4508.60606016,4030.54545414,42.0,42.0,?
2017-08-01 19:21:20.537758,4553.93939348,2888.96969668,4364.87878744,1186.90909079,3970.27272688,2542.78787853,3907.42424203,3268.12121179,4281.93939351,4.1212121208,4460.69696925,4104.72727232,4217.54545412,3189.8181815,4327.27272684,2567.51515126,4993.87878738,2855.99999971,4215.99999958,57.6969696912,4417.9393935,3387.6363633,4474.60606016,2237.81818159,4863.54545406,2884.84848456,4506.03030258,4030.54545414,42.0,42.0,?
2017-08-01 19:21:20.544461,4551.36363591,2888.96969668,4365.90909047,1186.90909079,3970.78787839,2542.78787853,3900.72727234,3268.12121179,4283.99999957,4.1212121208,4456.57575713,4104.72727232,4208.78787837,3189.8181815,4322.12121169,2567.51515126,4974.30302981,2855.99999971,4215.48484806,57.6969696912,4421.5454541,3387.6363633,4474.09090864,2237.81818159,4860.96969648,2884.84848456,4505.51515106,4030.54545414,42.0,42.0,?
2017-08-01 19:21:20.552409,4545.69696924,2888.96969668,4359.72727229,1186.90909079,3969.24242385,2542.78787853,3934.21212082,3268.12121179,4287.09090866,4.1212121208,4458.63636319,4104.72727232,4203.1212117,3189.8181815,4322.6363632,2567.51515126,4985.63636314,2855.99999971,4222.69696927,57.6969696912,4419.99999956,3387.6363633,4475.12121167,2237.81818159,4858.39393891,2884.84848456,4507.57575713,4030.54545414,42.0,42.0,?
2017-08-01 19:21:20.559209,4541.57575712,2888.96969668,4365.90909047,1186.90909079,3971.81818142,2542.78787853,3948.12121173,3268.12121179,4289.15151472,4.1212121208,4456.06060561,4104.72727232,4200.54545413,3189.8181815,4323.66666623,2567.51515126,5011.39393889,2855.99999971,4213.424242,57.6969696912,4414.33333289,3387.6363633,4472.03030258,2237.81818159,4854.27272679,2884.84848456,4506.03030258,4030.54545414,42.0,42.0,?
2017-08-01 19:21:20.566639,4538.99999955,2888.96969668,4365.90909047,1186.90909079,3971.30302991,2542.78787853,3918.75757537,3268.12121179,4286.57575715,4.1212121208,4452.96969652,4104.72727232,4200.54545413,3189.8181815,4320.06060563,2567.51515126,5000.57575708,2855.99999971,4201.57575716,57.6969696912,4409.18181774,3387.6363633,4466.36363592,2237.81818159,4845.51515103,2884.84848456,4498.81818137,4030.54545414,42.0,42.0,?
2017-08-01 19:21:20.576524,4535.90909046,2888.96969668,4362.30302987,1186.90909079,3965.63636324,2542.78787853,3896.0909087,3268.12121179,4284.51515109,4.1212121208,4464.81818137,4104.72727232,4206.72727231,3189.8181815,4319.54545411,2567.51515126,4986.66666617,2855.99999971,4209.30302988,57.6969696912,4412.78787835,3387.6363633,4467.39393895,2237.81818159,4844.99999952,2884.84848456,4493.1515147,4030.54545414,42.0,42.0,?
2017-08-01 19:21:20.583322,4539.51515106,2888.96969668,4366.42424199,1186.90909079,3968.21212082,2542.78787853,3915.66666628,3268.12121179,4292.75757533,4.1212121208,4480.27272682,4104.72727232,4215.99999958,3189.8181815,4328.30302987,2567.51515126,5001.09090859,2855.99999971,4224.24242382,57.6969696912,4419.48484804,3387.6363633,4473.06060561,2237.81818159,4854.7878783,2884.84848456,4497.27272682,4030.54545414,42.0,42.0,?
2017-08-01 19:21:20.592032,4547.24242379,2888.96969668,4364.36363593,1186.90909079,3972.33333294,2542.78787853,3943.99999961,3268.12121179,4304.09090866,4.1212121208,4482.8484844,4104.72727232,4223.7272723,3189.8181815,4343.24242381,2567.51515126,5008.81818132,2855.99999971,4225.27272685,57.6969696912,4422.06060562,3387.6363633,4475.12121167,2237.81818159,4864.06060557,2884.84848456,4504.99999955,4030.54545414,42.0,42.0,?
2017-08-01 19:21:20.598735,4550.33333288,2888.96969668,4366.42424199,1186.90909079,3966.66666627,2542.78787853,3925.96969658,3268.12121179,4298.42424199,4.1212121208,4474.09090864,4104.72727232,4224.75757534,3189.8181815,4340.15151472,2567.51515126,4997.9999995,2855.99999971,4215.99999958,57.6969696912,4421.5454541,3387.6363633,4467.90909046,2237.81818159,4861.99999951,2884.84848456,4499.33333288,4030.54545414,42.0,42.0,?
2017-08-01 19:21:20.607643,4544.66666621,2913.69696941,4360.24242381,1186.90909079,3960.9999996,2542.78787853,3904.84848446,3268.12121179,4291.21212078,4.1212121208,4475.12121167,4104.72727232,4228.87878746,3189.8181815,4326.24242381,2567.51515126,4999.54545405,2855.99999971,4214.45454503,57.6969696912,4414.84848441,3387.6363633,4464.81818137,2237.81818159,4853.24242376,2884.84848456,4487.99999955,4030.54545414,42.0,42.0,?
2017-08-01 19:21:20.614316,4544.66666621,2913.69696941,4360.24242381,1186.90909079,3960.9999996,2542.78787853,3904.84848446,3268.12121179,4291.21212078,4.1212121208,4475.12121167,4104.72727232,4228.87878746,3189.8181815,4326.24242381,2567.51515126,4999.54545405,2855.99999971,4214.45454503,57.6969696912,4414.84848441,3387.6363633,4464.81818137,2237.81818159,4853.24242376,2884.84848456,4487.99999955,4030.54545414,42.0,42.0,?
2017-08-01 19:21:20.621889,4553.93939348,2913.69696941,4367.45454502,1219.87878776,3970.27272688,2542.78787853,3934.72727233,3268.12121179,4307.69696927,4.1212121208,4490.06060561,4104.72727232,4246.39393897,3189.8181815,4346.3333329,2567.51515126,5013.45454495,2855.99999971,4224.75757534,57.6969696912,4429.27272683,3387.6363633,4469.96969652,2237.81818159,4868.69696921,2884.84848456,4500.36363591,4030.54545414,42.0,42.0,?
2017-08-01 19:21:20.630686,4552.90909045,2913.69696941,4361.78787835,1219.87878776,3965.63636324,2542.78787853,3929.06060567,3268.12121179,4308.7272723,4.1212121208,4488.51515107,4104.72727232,4257.7272723,3189.8181815,4360.24242381,2567.51515126,5027.87878738,2855.99999971,4236.09090867,57.6969696912,4433.39393895,3387.6363633,4469.45454501,2237.81818159,4869.21212073,2884.84848456,4510.1515147,4042.9090905,42.0,42.0,?
2017-08-01 19:21:20.638085,4554.454545,2913.69696941,4361.27272684,1219.87878776,3958.93939354,2542.78787853,3922.36363597,3268.12121179,4292.75757533,4.1212121208,4476.1515147,4104.72727232,4252.57575715,3189.8181815,4354.57575714,2567.51515126,5017.57575707,2855.99999971,4231.96969655,57.6969696912,4424.63636319,3387.6363633,4465.33333289,2237.81818159,4860.96969648,2884.84848456,4507.57575713,4042.9090905,42.0,42.0,?
2017-08-01 19:21:20.645706,4561.66666621,2913.69696941,4367.45454502,1219.87878776,3965.12121172,2542.78787853,3938.84848445,3305.21212088,4291.21212078,4.1212121208,4470.48484804,4104.72727232,4239.69696927,3189.8181815,4340.15151472,2567.51515126,4990.78787829,2855.99999971,4224.75757534,57.6969696912,4427.21212077,3387.6363633,4464.30302986,2237.81818159,4864.06060557,2884.84848456,4508.09090864,4042.9090905,42.0,42.0,?
2017-08-01 19:21:20.662239,4565.78787833,2913.69696941,4366.42424199,1219.87878776,3975.93939354,2542.78787853,3935.24242385,3305.21212088,4302.54545412,0.0,4471.51515107,4104.72727232,4230.424242,3189.8181815,4334.48484805,2567.51515126,4989.24242374,2855.99999971,4228.36363594,57.6969696912,4437.51515107,3387.6363633,4466.87878743,2237.81818159,4873.33333285,2884.84848456,4515.81818137,4042.9090905,42.0,42.0,?
2017-08-01 19:21:20.662977,4570.93939348,2913.69696941,4366.9393935,1219.87878776,3980.06060566,2542.78787853,3915.66666628,3305.21212088,4303.57575715,0.0,4470.99999955,4117.09090868,4227.84848443,3189.8181815,4340.66666623,2567.51515126,5013.96969647,2855.99999971,4230.93939352,57.6969696912,4439.57575713,3387.6363633,4463.78787834,2237.81818159,4882.60606012,2884.84848456,4519.93939349,4042.9090905,42.0,42.0,?
2017-08-01 19:21:20.669592,4572.48484803,2913.69696941,4365.39393896,1219.87878776,3979.03030263,2542.78787853,3920.81818143,3305.21212088,4298.42424199,0.0,4473.06060561,4117.09090868,4232.99999958,3193.93939362,4343.24242381,2567.51515126,5030.96969647,2855.99999971,4231.45454503,57.6969696912,4437.51515107,3387.6363633,4463.78787834,2237.81818159,4887.75757527,2884.84848456,4525.60606015,4042.9090905,42.0,42.0,?
2017-08-01 19:21:20.677324,4569.39393894,2913.69696941,4367.45454502,1219.87878776,3977.48484809,2542.78787853,3926.99999961,3305.21212088,4295.84848442,0.0,4481.81818137,4117.09090868,4234.54545412,3193.93939362,4334.48484805,2621.09090883,5021.18181768,2855.99999971,4232.48484806,57.6969696912,4438.03030259,3387.6363633,4464.81818137,2237.81818159,4881.57575709,2884.84848456,4526.12121167,4042.9090905,42.0,42.0,?
2017-08-01 19:21:20.683626,4569.90909045,2913.69696941,4366.42424199,1219.87878776,3975.93939354,2542.78787853,3926.48484809,3305.21212088,4302.54545412,0.0,4495.72727228,4117.09090868,4235.06060564,3193.93939362,4340.66666623,2621.09090883,5010.36363586,2864.24242396,4236.60606018,57.6969696912,4441.63636319,3387.6363633,4462.2424238,2237.81818159,4877.45454497,2884.84848456,4524.57575712,4042.9090905,42.0,42.0,?
2017-08-01 19:21:20.692657,4576.60606015,2913.69696941,4362.81818138,1219.87878776,3979.03030263,2542.78787853,3937.81818142,3305.21212088,4315.42424199,0.0,4503.96969652,4117.09090868,4239.69696927,3193.93939362,4359.21212078,2621.09090883,5017.57575707,2864.24242396,4245.87878745,61.818181812,4447.81818137,3387.6363633,4463.78787834,2237.81818159,4883.63636315,2884.84848456,4532.81818136,4042.9090905,42.0,42.0,?
2017-08-01 19:21:20.700595,4580.72727227,2913.69696941,4365.39393896,1219.87878776,3983.66666627,2542.78787853,3940.393939,3305.21212088,4319.54545411,0.0,4498.30302985,4117.09090868,4239.18181776,3193.93939362,4360.24242381,2621.09090883,5024.78787829,2864.24242396,4248.96969654,61.818181812,4453.99999955,3445.33333299,4468.93939349,2237.81818159,4888.27272678,2884.84848456,4533.8484844,4042.9090905,42.0,42.0,?
2017-08-01 19:21:20.708529,4572.48484803,2913.69696941,4361.27272684,1219.87878776,3976.96969657,2542.78787853,3929.57575718,3305.21212088,4311.81818139,0.0,4486.45454501,4117.09090868,4235.57575715,3193.93939362,4354.06060563,2621.09090883,5028.90909041,2864.24242396,4245.36363594,61.818181812,4450.90909046,3445.33333299,4464.30302986,2229.57575735,4884.66666618,2884.84848456,4525.09090864,4042.9090905,42.0,42.0,?
2017-08-01 19:21:20.715912,4569.39393894,2913.69696941,4362.81818138,1219.87878776,3972.33333294,2542.78787853,3932.66666627,3305.21212088,4308.21212078,0.0,4479.75757531,4117.09090868,4232.99999958,3193.93939362,4357.66666623,2621.09090883,5029.93939344,2864.24242396,4244.84848442,61.818181812,4445.2424238,3445.33333299,4459.66666622,2229.57575735,4884.66666618,2884.84848456,4525.60606015,4042.9090905,42.0,42.0,?
2017-08-01 19:21:20.725057,4575.0606056,2913.69696941,4366.9393935,1219.87878776,3977.9999996,2542.78787853,3935.75757536,3305.21212088,4314.90909048,0.0,4487.99999955,4117.09090868,4240.7272723,3193.93939362,4360.24242381,2621.09090883,5019.63636313,2864.24242396,4248.45454503,49.4545454496,4446.78787834,3445.33333299,4463.27272683,2229.57575735,4887.24242375,2884.84848456,4528.18181773,4042.9090905,42.0,42.0,?
2017-08-01 19:21:20.731224,4575.0606056,2913.69696941,4359.72727229,1219.87878776,3975.42424203,2542.78787853,3926.48484809,3305.21212088,4320.57575714,0.0,4497.78787834,4117.09090868,4258.24242382,3193.93939362,4359.72727229,2621.09090883,5020.66666616,2864.24242396,4249.48484806,49.4545454496,4448.33333289,3457.69696935,4461.21212077,2229.57575735,4885.69696921,2884.84848456,4529.21212076,4042.9090905,42.0,42.0,?
2017-08-01 19:21:20.738621,4571.454545,2913.69696941,4359.21212078,1219.87878776,3970.27272688,2542.78787853,3931.63636324,3305.21212088,4317.99999957,0.0,4491.09090864,4117.09090868,4262.87878745,3193.93939362,4359.72727229,2621.09090883,5035.09090859,2864.24242396,4246.39393897,49.4545454496,4443.18181774,3457.69696935,4456.57575713,2233.69696947,4881.57575709,2884.84848456,4527.1515147,4042.9090905,42.0,42.0,?
2017-08-01 19:21:20.747296,4567.33333288,2913.69696941,4358.69696926,1219.87878776,3970.78787839,2542.78787853,3948.12121173,3305.21212088,4312.84848442,0.0,4487.99999955,4117.09090868,4257.7272723,3193.93939362,4359.21212078,2621.09090883,5032.51515101,2864.24242396,4247.424242,49.4545454496,4439.06060562,3457.69696935,4458.63636319,2233.69696947,4876.93939345,2884.84848456,4521.99999955,4042.9090905,42.0,42.0,?
2017-08-01 19:21:20.759490,4568.87878742,2913.69696941,4361.27272684,1219.87878776,3975.42424203,2542.78787853,3951.21212082,3305.21212088,4312.84848442,0.0,4491.60606016,4117.09090868,4254.63636321,3193.93939362,4359.72727229,2621.09090883,5022.21212071,2864.24242396,4249.48484806,49.4545454496,4441.63636319,3457.69696935,4460.18181774,2233.69696947,4874.36363588,2884.84848456,4525.60606015,4042.9090905,42.0,42.0,?
2017-08-01 19:21:20.764563,4572.99999954,2913.69696941,4363.3333329,1219.87878776,3977.48484809,2542.78787853,3935.24242385,3305.21212088,4312.3333329,0.0,4486.96969652,4117.09090868,4246.39393897,3193.93939362,4359.72727229,2621.09090883,5029.93939344,2864.24242396,4245.36363594,49.4545454496,4440.60606016,3457.69696935,4457.60606016,2233.69696947,4872.30302982,2884.84848456,4533.33333288,4042.9090905,42.0,42.0,?
2017-08-01 19:21:20.773837,4569.39393894,2913.69696941,4356.6363632,1219.87878776,3969.75757536,2542.78787853,3925.96969658,3305.21212088,4305.12121169,0.0,4486.45454501,4117.09090868,4237.1212117,3193.93939362,4355.09090866,2621.09090883,5040.75757525,2864.24242396,4242.78787836,49.4545454496,4437.51515107,3457.69696935,4456.57575713,2233.69696947,4872.81818133,2884.84848456,4528.69696924,4042.9090905,42.0,42.0,?
2017-08-01 19:21:20.779770,4567.33333288,2913.69696941,4360.24242381,1219.87878776,3966.66666627,2542.78787853,3935.24242385,3305.21212088,4303.57575715,0.0,4494.18181773,4117.09090868,4234.03030261,3193.93939362,4348.90909047,2621.09090883,5033.03030253,2864.24242396,4242.78787836,49.4545454496,4438.03030259,3457.69696935,4457.60606016,2233.69696947,4878.484848,2884.84848456,4519.93939349,4042.9090905,42.0,42.0,?
2017-08-01 19:21:20.788714,4565.27272682,2913.69696941,4360.24242381,1219.87878776,3972.84848445,2542.78787853,3930.60606021,3305.21212088,4312.3333329,0.0,4490.57575713,4117.09090868,4232.48484806,3193.93939362,4347.87878744,2621.09090883,5019.12121162,2864.24242396,4237.63636321,49.4545454496,4434.42424198,3457.69696935,4454.51515107,2233.69696947,4878.99999951,2884.84848456,4520.96969652,4042.9090905,42.0,42.0,?
2017-08-01 19:21:20.794314,4563.72727227,2913.69696941,4359.72727229,1219.87878776,3973.87878748,2542.78787853,3902.7878784,3305.21212088,4313.87878745,0.0,4485.93939349,4117.09090868,4228.87878746,3193.93939362,4348.39393896,2621.09090883,5005.21212071,2864.24242396,4230.93939352,49.4545454496,4430.81818138,3457.69696935,4450.90909046,2233.69696947,4876.93939345,2884.84848456,4521.99999955,4042.9090905,42.0,42.0,?
2017-08-01 19:21:20.803374,4567.84848439,2913.69696941,4365.39393896,1219.87878776,3972.33333294,2542.78787853,3912.57575718,3305.21212088,4312.3333329,0.0,4495.72727228,4117.09090868,4232.99999958,3193.93939362,4350.96969653,2621.09090883,5009.84848435,2864.24242396,4234.03030261,49.4545454496,4433.90909047,3457.69696935,4453.99999955,2233.69696947,4880.54545406,2884.84848456,4521.48484803,4042.9090905,42.0,42.0,?
2017-08-01 19:21:20.816742,4567.33333288,2913.69696941,4357.66666623,1219.87878776,3971.81818142,2542.78787853,3958.93939354,3305.21212088,4316.45454502,0.0,4499.8484844,4117.09090868,4238.15151473,3193.93939362,4353.54545411,2621.09090883,5027.36363586,2864.24242396,4241.75757533,49.4545454496,4434.9393935,3457.69696935,4456.57575713,2233.69696947,4883.63636315,2884.84848456,4525.60606015,4042.9090905,42.0,42.0,?
2017-08-01 19:21:20.820702,4561.1515147,2913.69696941,4357.66666623,1219.87878776,3970.27272688,2542.78787853,3956.36363597,3305.21212088,4307.69696927,0.0,4487.48484804,4117.09090868,4225.78787837,3193.93939362,4341.69696926,2621.09090883,5012.42424192,2864.24242396,4234.54545412,49.4545454496,4427.21212077,3457.69696935,4452.45454501,2233.69696947,4878.99999951,2884.84848456,4520.454545,4042.9090905,42.0,42.0,?
2017-08-01 19:21:20.826428,4558.0606056,2913.69696941,4362.81818138,1219.87878776,3967.6969693,2542.78787853,3926.48484809,3305.21212088,4295.84848442,0.0,4475.63636319,4117.09090868,4214.96969655,3193.93939362,4330.87878745,2621.09090883,4991.3030298,2864.24242396,4225.78787837,49.4545454496,4425.66666622,3457.69696935,4446.27272683,2233.69696947,4871.7878783,2884.84848456,4514.78787834,4042.9090905,42.0,42.0,?
2017-08-01 19:21:20.832654,4564.24242379,2913.69696941,4362.30302987,1219.87878776,3966.66666627,2542.78787853,3935.75757536,3305.21212088,4302.0303026,0.0,4478.21212076,4117.09090868,4227.33333291,3193.93939362,4340.15151472,2621.09090883,5005.72727223,2864.24242396,4230.93939352,49.4545454496,4435.45454501,3457.69696935,4448.33333289,2233.69696947,4877.45454497,2884.84848456,4518.39393894,4042.9090905,42.0,42.0,?
2017-08-01 19:21:20.842343,4573.51515106,2913.69696941,4363.84848441,1219.87878776,3973.36363597,2542.78787853,3930.60606021,3305.21212088,4308.21212078,0.0,4489.03030258,4117.09090868,4245.87878745,3193.93939362,4351.48484805,2621.09090883,5023.75757526,2864.24242396,4236.60606018,49.4545454496,4437.51515107,3457.69696935,4455.03030258,2233.69696947,4887.24242375,2884.84848456,4522.51515106,4042.9090905,42.0,42.0,?
2017-08-01 19:21:20.848642,4566.30302985,2913.69696941,4355.60606017,1219.87878776,3973.87878748,2542.78787853,3900.21212082,3305.21212088,4303.57575715,0.0,4489.5454541,4117.09090868,4246.39393897,3193.93939362,4354.06060563,2621.09090883,5020.66666616,2864.24242396,4231.96969655,49.4545454496,4425.66666622,3457.69696935,4454.51515107,2233.69696947,4883.12121163,2884.84848456,4523.03030258,4042.9090905,42.0,42.0,?
2017-08-01 19:21:20.856768,4556.51515106,2913.69696941,4356.6363632,1219.87878776,3967.18181779,2542.78787853,3917.72727234,3305.21212088,4302.0303026,0.0,4480.27272682,4117.09090868,4238.66666624,3193.93939362,4356.12121169,2621.09090883,5019.63636313,2864.24242396,4227.84848443,49.4545454496,4421.03030259,3457.69696935,4448.8484844,2233.69696947,4876.93939345,2884.84848456,4519.42424197,4042.9090905,42.0,42.0,?
2017-08-01 19:21:20.865981,4557.54545409,2913.69696941,4361.27272684,1219.87878776,3962.54545415,2542.78787853,3953.27272688,3305.21212088,4303.57575715,0.0,4474.09090864,4117.09090868,4232.99999958,3193.93939362,4350.96969653,2621.09090883,5017.57575707,2864.24242396,4224.75757534,49.4545454496,4425.66666622,3457.69696935,4445.75757531,2233.69696947,4874.36363588,2884.84848456,4515.81818137,4042.9090905,42.0,42.0,?
2017-08-01 19:21:20.872412,4563.72727227,2913.69696941,4357.15151472,1219.87878776,3966.15151475,2542.78787853,3945.54545415,3305.21212088,4303.57575715,0.0,4479.24242379,4117.09090868,4227.84848443,3193.93939362,4341.69696926,2621.09090883,4999.03030253,2864.24242396,4221.66666624,49.4545454496,4426.69696925,3457.69696935,4448.8484844,2233.69696947,4874.36363588,2884.84848456,4517.36363591,4042.9090905,42.0,42.0,?
2017-08-01 19:21:20.881362,4572.99999954,2913.69696941,4361.27272684,1219.87878776,3972.33333294,2542.78787853,3925.45454506,3305.21212088,4308.7272723,0.0,4489.03030258,4117.09090868,4227.84848443,3193.93939362,4344.78787835,2621.09090883,4998.51515102,2864.24242396,4230.93939352,49.4545454496,4433.39393895,3457.69696935,4453.48484804,2233.69696947,4881.57575709,2884.84848456,4525.09090864,4042.9090905,42.0,42.0,?
2017-08-01 19:21:20.887541,4572.99999954,2913.69696941,4362.81818138,1219.87878776,3967.6969693,2542.78787853,3914.63636324,3305.21212088,4313.87878745,0.0,4493.66666622,4117.09090868,4228.87878746,3193.93939362,4354.06060563,2621.09090883,5027.36363586,2864.24242396,4241.75757533,49.4545454496,4438.03030259,3457.69696935,4451.42424198,2233.69696947,4886.72727224,2884.84848456,4528.18181773,4042.9090905,42.0,42.0,?
2017-08-01 19:21:20.896875,4563.21212076,2913.69696941,4362.30302987,1219.87878776,3961.51515112,2542.78787853,3912.57575718,3305.21212088,4311.30302987,0.0,4493.1515147,4117.09090868,4214.45454503,3193.93939362,4346.84848441,2621.09090883,5031.48484798,2864.24242396,4231.96969655,49.4545454496,4428.2424238,3457.69696935,4447.30302986,2233.69696947,4878.484848,2884.84848456,4517.36363591,4042.9090905,42.0,42.0,?
2017-08-01 19:21:20.903683,4557.54545409,2913.69696941,4359.72727229,1219.87878776,3959.96969657,2542.78787853,3917.72727234,3305.21212088,4311.30302987,0.0,4486.96969652,4117.09090868,4204.66666625,3193.93939362,4338.09090866,2621.09090883,5005.21212071,2864.24242396,4217.54545412,49.4545454496,4422.57575713,3457.69696935,4445.2424238,2233.69696947,4869.21212073,2884.84848456,4506.54545409,4042.9090905,42.0,42.0,?
2017-08-01 19:21:20.911293,4562.18181773,2913.69696941,4355.60606017,1219.87878776,3963.57575718,2542.78787853,3912.06060567,3305.21212088,4316.96969654,0.0,4479.24242379,4117.09090868,4220.63636321,3193.93939362,4344.27272684,2621.09090883,4998.51515102,2864.24242396,4222.69696927,49.4545454496,4427.21212077,3457.69696935,4444.72727228,2233.69696947,4876.42424194,2884.84848456,4512.21212076,4042.9090905,42.0,42.0,?
2017-08-01 19:21:20.918521,4570.93939348,2913.69696941,4361.27272684,1219.87878776,3971.30302991,2542.78787853,3923.393939,3305.21212088,4309.24242381,0.0,4479.24242379,4117.09090868,4235.57575715,3193.93939362,4345.30302987,2621.09090883,5007.78787829,2864.24242396,4231.45454503,49.4545454496,4428.75757531,3457.69696935,4447.30302986,2233.69696947,4884.15151466,2884.84848456,4520.96969652,4042.9090905,42.0,42.0,?
2017-08-01 19:21:20.926567,4566.81818136,2913.69696941,4358.18181775,1219.87878776,3965.12121172,2542.78787853,3944.51515112,3305.21212088,4296.36363593,0.0,4477.18181773,4117.09090868,4235.06060564,3193.93939362,4337.57575714,2621.09090883,5011.39393889,2864.24242396,4228.36363594,49.4545454496,4425.66666622,3457.69696935,4449.36363592,2233.69696947,4876.42424194,2884.84848456,4517.36363591,4042.9090905,42.0,42.0,?
2017-08-01 19:21:20.936255,4554.454545,2913.69696941,4356.12121169,1219.87878776,3952.75757536,2542.78787853,3919.7878784,3305.21212088,4293.78787836,0.0,4463.27272683,4117.09090868,4235.57575715,3193.93939362,4333.45454502,2621.09090883,5009.33333283,2864.24242396,4221.66666624,49.4545454496,4423.60606016,3457.69696935,4445.2424238,2233.69696947,4866.12121163,2884.84848456,4509.63636319,4042.9090905,42.0,42.0,?
2017-08-01 19:21:20.943194,4549.30302985,2913.69696941,4360.75757532,1219.87878776,3952.75757536,2542.78787853,3904.84848446,3305.21212088,4292.75757533,0.0,4456.57575713,4117.09090868,4240.21212079,3193.93939362,4332.93939351,2621.09090883,5005.72727223,2864.24242396,4218.06060564,49.4545454496,4419.99999956,3457.69696935,4441.12121168,2233.69696947,4865.60606012,2884.84848456,4508.60606016,4042.9090905,42.0,42.0,?
2017-08-01 19:21:20.949463,4551.36363591,2913.69696941,4356.12121169,1219.87878776,3954.81818142,2542.78787853,3926.48484809,3305.21212088,4291.7272723,0.0,4462.2424238,4117.09090868,4234.54545412,3193.93939362,4329.3333329,2621.09090883,5005.72727223,2864.24242396,4213.424242,49.4545454496,4414.84848441,3457.69696935,4441.63636319,2233.69696947,4867.66666618,2884.84848456,4513.24242379,4042.9090905,42.0,42.0,?
2017-08-01 19:21:20.959586,4558.57575712,2913.69696941,4358.18181775,1219.87878776,3957.393939,2542.78787853,3915.15151476,3305.21212088,4292.75757533,0.0,4460.18181774,4117.09090868,4218.57575715,3193.93939362,4319.0303026,2621.09090883,5001.09090859,2864.24242396,4208.27272685,49.4545454496,4416.90909047,3457.69696935,4442.66666622,2233.69696947,4869.21212073,2884.84848456,4512.72727228,4042.9090905,42.0,42.0,?
2017-08-01 19:21:20.966204,4564.24242379,2913.69696941,4359.21212078,1219.87878776,3964.60606021,2542.78787853,3903.30302991,3305.21212088,4291.21212078,0.0,4457.60606016,4117.09090868,4206.72727231,3193.93939362,4314.90909048,2621.09090883,4995.42424192,2864.24242396,4218.06060564,49.4545454496,4425.66666622,3457.69696935,4445.2424238,2233.69696947,4873.84848436,2884.84848456,4517.36363591,4042.9090905,42.0,42.0,?
2017-08-01 19:21:20.974959,4566.81818136,2913.69696941,4358.18181775,1219.87878776,3964.60606021,2542.78787853,3930.60606021,3305.21212088,4294.30302987,0.0,4466.87878743,4117.09090868,4211.87878746,3193.93939362,4324.18181775,2621.09090883,5002.63636314,2864.24242396,4233.51515109,49.4545454496,4434.9393935,3457.69696935,4448.33333289,2233.69696947,4878.99999951,2884.84848456,4527.66666621,4042.9090905,42.0,42.0,?
2017-08-01 19:21:20.986636,4565.78787833,2913.69696941,4361.27272684,1219.87878776,3957.90909051,2542.78787853,3929.57575718,3305.21212088,4296.36363593,0.0,4476.66666622,4117.09090868,4220.63636321,3193.93939362,4333.45454502,2621.09090883,5013.96969647,2864.24242396,4233.51515109,49.4545454496,4434.9393935,3457.69696935,4445.2424238,2233.69696947,4878.484848,2884.84848456,4525.60606015,4042.9090905,42.0,42.0,?
2017-08-01 19:21:20.991927,4561.1515147,2913.69696941,4355.60606017,1219.87878776,3954.81818142,2542.78787853,3912.06060567,3305.21212088,4289.15151472,0.0,4482.8484844,4117.09090868,4215.99999958,3193.93939362,4336.0303026,2621.09090883,5013.45454495,2864.24242396,4227.33333291,49.4545454496,4428.2424238,3457.69696935,4441.12121168,2233.69696947,4873.33333285,2884.84848456,4514.78787834,4042.9090905,42.0,42.0,?
2017-08-01 19:21:20.997009,4563.21212076,2913.69696941,4356.6363632,1219.87878776,3957.393939,2542.78787853,3923.393939,3305.21212088,4292.24242381,0.0,4489.03030258,4117.09090868,4208.78787837,3193.93939362,4336.54545411,2621.09090883,5009.84848435,2864.24242396,4226.8181814,49.4545454496,4430.30302986,3457.69696935,4442.66666622,2233.69696947,4875.90909042,2884.84848456,4511.69696925,4042.9090905,42.0,42.0,?
2017-08-01 19:21:21.004587,4566.30302985,2913.69696941,4359.21212078,1219.87878776,3962.03030263,2542.78787853,3921.84848446,3305.21212088,4304.60606018,0.0,4492.12121167,4117.09090868,4213.424242,3193.93939362,4341.18181775,2621.09090883,5014.48484798,2864.24242396,4230.424242,49.4545454496,4435.96969653,3457.69696935,4445.75757531,2233.69696947,4881.06060557,2884.84848456,4517.36363591,4042.9090905,42.0,42.0,?
2017-08-01 19:21:21.015283,4566.81818136,2913.69696941,4356.6363632,1219.87878776,3965.63636324,2542.78787853,3917.72727234,3305.21212088,4296.87878745,0.0,4483.36363592,4117.09090868,4220.63636321,3193.93939362,4341.69696926,2621.09090883,5005.72727223,2864.24242396,4230.424242,49.4545454496,4434.42424198,3457.69696935,4449.36363592,2233.69696947,4882.0909086,2884.84848456,4522.51515106,4042.9090905,42.0,42.0,?
2017-08-01 19:21:21.020510,4569.90909045,2913.69696941,4360.24242381,1219.87878776,3963.57575718,2542.78787853,3937.81818142,3305.21212088,4282.96969654,0.0,4475.63636319,4117.09090868,4226.30302988,3193.93939362,4336.54545411,2621.09090883,4990.78787829,2864.24242396,4222.69696927,49.4545454496,4429.27272683,3457.69696935,4449.36363592,2233.69696947,4883.63636315,2884.84848456,4521.99999955,4042.9090905,42.0,42.0,?
2017-08-01 19:21:21.029554,4571.454545,2913.69696941,4356.6363632,1219.87878776,3958.42424203,2542.78787853,3942.45454506,3305.21212088,4289.15151472,0.0,4479.75757531,4117.09090868,4238.66666624,3193.93939362,4338.60606017,2621.09090883,5005.21212071,2864.24242396,4223.7272723,49.4545454496,4431.84848441,3457.69696935,4441.63636319,2233.69696947,4886.21212072,2884.84848456,4527.1515147,4042.9090905,42.0,42.0,?
2017-08-01 19:21:21.036556,4571.454545,2913.69696941,4355.60606017,1219.87878776,3958.42424203,2542.78787853,3914.12121173,3305.21212088,4292.24242381,0.0,4480.78787834,4117.09090868,4249.48484806,3193.93939362,4342.72727229,2621.09090883,5022.21212071,2864.24242396,4232.48484806,49.4545454496,4440.09090865,3457.69696935,4440.09090865,2233.69696947,4885.69696921,2884.84848456,4531.27272682,4042.9090905,42.0,42.0,?
2017-08-01 19:21:21.044162,4564.24242379,2913.69696941,4358.18181775,1219.87878776,3954.81818142,2542.78787853,3896.60606022,3305.21212088,4282.45454503,0.0,4470.48484804,4117.09090868,4239.69696927,3193.93939362,4333.96969654,2621.09090883,5011.39393889,2864.24242396,4232.99999958,49.4545454496,4436.48484804,3457.69696935,4444.72727228,2233.69696947,4882.60606012,2884.84848456,4521.99999955,4042.9090905,42.0,42.0,?
2017-08-01 19:21:21.051999,4554.454545,2913.69696941,4354.06060563,1219.87878776,3946.57575718,2542.78787853,3911.03030264,3305.21212088,4278.33333291,0.0,4460.18181774,4117.09090868,4216.51515109,3193.93939362,4318.51515108,2621.09090883,4995.42424192,2864.24242396,4225.27272685,49.4545454496,4426.18181774,3457.69696935,4443.18181774,2233.69696947,4881.57575709,2884.84848456,4508.60606016,4042.9090905,42.0,42.0,?
2017-08-01 19:21:21.060006,4558.57575712,2913.69696941,4357.15151472,1219.87878776,3951.21212082,2542.78787853,3924.93939355,3305.21212088,4282.96969654,0.0,4458.12121168,4117.09090868,4208.27272685,3193.93939362,4317.48484805,2621.09090883,4997.48484799,2864.24242396,4219.09090867,49.4545454496,4423.09090865,3457.69696935,4438.5454541,2233.69696947,4882.0909086,2884.84848456,4505.51515106,4042.9090905,42.0,42.0,?
2017-08-01 19:21:21.067630,4563.72727227,2913.69696941,4359.21212078,1219.87878776,3958.42424203,2542.78787853,3916.18181779,3305.21212088,4287.60606018,0.0,4463.78787834,4117.09090868,4214.96969655,3193.93939362,4329.84848442,2621.09090883,5007.27272677,2864.24242396,4220.63636321,49.4545454496,4421.5454541,3457.69696935,4438.5454541,2233.69696947,4876.93939345,2884.84848456,4511.69696925,4042.9090905,42.0,42.0,?
2017-08-01 19:21:21.077963,4559.60606015,2913.69696941,4360.24242381,1219.87878776,3955.84848445,2542.78787853,3908.96969658,3305.21212088,4282.45454503,0.0,4459.66666622,4117.09090868,4208.78787837,3193.93939362,4323.66666623,2621.09090883,5002.12121162,2864.24242396,4223.7272723,49.4545454496,4417.42424198,3457.69696935,4439.57575713,2233.69696947,4870.24242376,2884.84848456,4516.33333288,4042.9090905,42.0,42.0,?
2017-08-01 19:21:21.084606,4548.78787833,2913.69696941,4356.6363632,1219.87878776,3947.0909087,2542.78787853,3913.0909087,3305.21212088,4270.60606018,0.0,4441.63636319,4117.09090868,4193.84848443,3193.93939362,4304.60606018,2621.09090883,4990.78787829,2864.24242396,4212.90909049,49.4545454496,4410.21212077,3457.69696935,4435.45454501,2233.69696947,4863.54545406,2884.84848456,4510.1515147,4042.9090905,42.0,42.0,?
2017-08-01 19:21:21.091257,4536.42424197,2913.69696941,4349.42424199,1219.87878776,3937.30302991,2542.78787853,3902.7878784,3305.21212088,4269.57575715,0.0,4441.12121168,4117.09090868,4193.84848443,3193.93939362,4303.57575715,2621.09090883,4979.96969647,2864.24242396,4196.93939352,49.4545454496,4402.48484804,3457.69696935,4433.39393895,2233.69696947,4854.27272679,2884.84848456,4494.69696925,4042.9090905,42.0,42.0,?
2017-08-01 19:21:21.099980,4541.06060561,2913.69696941,4355.09090866,1219.87878776,3940.90909052,2542.78787853,3893.51515113,3305.21212088,4281.424242,0.0,4460.18181774,4117.09090868,4203.63636322,3193.93939362,4314.39393896,2621.09090883,4968.63636314,2864.24242396,4198.48484806,49.4545454496,4407.12121168,3457.69696935,4438.5454541,2233.69696947,4855.30302982,2884.84848456,4491.60606016,4042.9090905,42.0,42.0,?
2017-08-01 19:21:21.108200,4552.39393894,2913.69696941,4354.06060563,1219.87878776,3949.66666627,2542.78787853,3888.36363597,3305.21212088,4290.69696927,0.0,4462.75757531,4117.09090868,4208.27272685,3193.93939362,4314.39393896,2621.09090883,4979.45454496,2864.24242396,4208.78787837,49.4545454496,4415.36363592,3457.69696935,4437.51515107,2233.69696947,4863.54545406,2884.84848456,4506.03030258,4042.9090905,42.0,42.0,?
2017-08-01 19:21:21.118036,4554.454545,2913.69696941,4351.99999956,1219.87878776,3952.24242385,2542.78787853,3881.15151476,3305.21212088,4282.96969654,0.0,4450.39393895,4117.09090868,4204.66666625,3193.93939362,4305.12121169,2621.09090883,4998.51515102,2864.24242396,4206.21212079,49.4545454496,4411.75757532,3457.69696935,4433.39393895,2233.69696947,4863.54545406,2884.84848456,4509.63636319,4042.9090905,42.0,42.0,?
2017-08-01 19:21:21.122509,4552.90909045,2905.45454516,4355.60606017,1219.87878776,3950.6969693,2542.78787853,3901.24242385,3305.21212088,4269.57575715,0.0,4449.36363592,4117.09090868,4206.72727231,3193.93939362,4301.51515109,2621.09090883,4986.66666617,2864.24242396,4204.66666625,49.4545454496,4412.78787835,3457.69696935,4439.06060562,2233.69696947,4861.99999951,2884.84848456,4504.48484803,4042.9090905,42.0,42.0,?
2017-08-01 19:21:21.131422,4551.36363591,2905.45454516,4349.9393935,1265.21212109,3946.57575718,2542.78787853,3922.36363597,3305.21212088,4274.7272723,0.0,4454.51515107,4117.09090868,4220.63636321,3193.93939362,4308.21212078,2621.09090883,4972.75757526,2864.24242396,4208.78787837,49.4545454496,4414.84848441,3457.69696935,4443.18181774,2233.69696947,4866.63636315,2884.84848456,4502.93939349,4042.9090905,42.0,42.0,?
