Timestamp,F3 Value,F3 Quality,FC5 Value,FC5 Quality,F7 Value,F7 Quality,T7 Value,T7 Quality,P7 Value,P7 Quality,O1 Value,O1 Quality,O2 Value,O2 Quality,P8 Value,P8 Quality,T8 Value,T8 Quality,F8 Value,F8 Quality,AF4 Value,AF4 Quality,FC6 Value,FC6 Quality,F4 Value,F4 Quality,AF3 Value,AF3 Quality,X Value,Y Value,Z Value
2017-08-01 19:26:57.973225,4565.78787833,0,4327.27272684,0,3916.18181779,0,4204.15151473,0,4286.57575715,0,4467.39393895,0,4196.424242,0,4229.39393897,0,5054.15151465,0,4246.39393897,0,4380.84848441,0,4248.45454503,0,4800.69696922,0,4480.78787834,0,42.0,42.0,?
2017-08-01 19:26:57.973311,4565.78787833,0,4327.27272684,0,3916.18181779,0,4204.15151473,0,4286.57575715,0,4467.39393895,0,4196.424242,0,4229.39393897,0,5054.15151465,0,4246.39393897,0,4380.84848441,0,4248.45454503,0,4800.69696922,0,4480.78787834,0,42.0,42.0,?
2017-08-01 19:26:57.975571,4570.42424197,0,4329.84848442,0,3924.42424203,0,4207.75757534,0,4288.63636321,0,4476.66666622,0,4206.21212079,0,4237.1212117,0,5069.6060601,0,4271.12121169,0,4390.12121168,0,4252.57575715,0,4805.33333285,0,4490.57575713,0,42.0,42.0,?
2017-08-01 19:26:57.979862,4569.90909045,0,4326.24242381,0,3924.42424203,0,4208.27272685,0,4290.18181775,0,4477.69696925,0,4213.424242,0,4242.78787836,0,5064.96969646,0,4276.27272685,0,4396.81818138,0,4252.06060564,0,4806.8787874,0,4496.75757531,0,42.0,42.0,?
2017-08-01 19:26:57.985811,4569.90909045,0,4326.24242381,0,3924.42424203,0,4205.18181776,0,4290.18181775,0,4473.06060561,0,4208.27272685,0,4240.21212079,0,5064.96969646,0,4276.27272685,0,4391.66666623,0,4252.06060564,0,4799.15151467,0,4493.1515147,0,42.0,42.0,?
2017-08-01 19:26:57.989483,4574.03030257,0,4326.75757532,0,3916.69696931,0,4205.69696928,0,4287.09090866,0,4468.42424198,0,4198.48484806,0,4232.48484806,0,5063.42424192,0,4282.45454503,0,4391.15151471,0,4251.03030261,0,4796.06060558,0,4491.60606016,0,42.0,42.0,?
2017-08-01 19:26:57.993782,4572.99999954,4034.66666626,4327.78787836,0,3911.54545415,0,4202.09090867,0,4289.15151472,0,4470.99999955,0,4195.90909049,0,4230.424242,0,5064.96969646,0,4294.81818139,0,4404.54545411,0,4250.51515109,0,4798.63636316,0,4491.60606016,0,42.0,42.0,?
2017-08-01 19:26:57.997693,4574.03030257,4034.66666626,4329.3333329,1030.3030302,3901.75757537,0,4197.45454503,0,4292.24242381,0,4476.66666622,0,4203.1212117,0,4238.66666624,0,5062.39393889,0,4300.48484805,0,4409.69696926,0,4248.96969654,0,4800.1818177,0,4487.48484804,0,42.0,42.0,?
2017-08-01 19:26:58.002609,4576.60606015,4034.66666626,4325.21212078,1030.3030302,3884.75757537,0,4196.424242,0,4290.69696927,0,4473.57575713,0,4212.39393897,0,4242.78787836,0,5060.33333283,0,4298.93939351,0,4401.45454501,0,4248.45454503,0,4796.06060558,0,4481.30302985,3329.93939361,42.0,42.0,?
2017-08-01 19:26:58.003860,4572.48484803,4034.66666626,4317.48484805,1030.3030302,3876.51515113,4022.3030299,4191.78787837,0,4292.24242381,0,4471.51515107,0,4214.96969655,0,4240.21212079,0,5060.84848434,0,4298.93939351,0,4396.30302986,0,4248.96969654,0,4789.8787874,0,4477.18181773,3329.93939361,42.0,42.0,?
2017-08-01 19:26:58.007311,4574.54545409,4034.66666626,4319.54545411,1030.3030302,3880.63636325,4022.3030299,4186.1212117,284.363636335,4291.7272723,0,4478.21212076,0,4213.93939352,0,4240.21212079,0,5060.84848434,0,4300.99999957,0,4397.33333289,0,4249.99999958,0,4790.90909043,0,4473.06060561,3329.93939361,42.0,42.0,?
2017-08-01 19:26:58.010371,4576.60606015,4034.66666626,4319.0303026,1030.3030302,3882.69696931,4022.3030299,4188.69696928,284.363636335,4287.09090866,556.363636308,4475.12121167,0,4211.87878746,0,4241.75757533,0,5059.3030298,0,4298.93939351,0,4396.81818138,0,4250.51515109,0,4789.36363588,0,4468.93939349,3329.93939361,42.0,42.0,?
2017-08-01 19:26:58.014534,4575.0606056,4034.66666626,4316.45454502,1030.3030302,3890.93939355,4022.3030299,4194.36363594,284.363636335,4289.15151472,556.363636308,4468.42424198,733.575757502,4207.75757534,0,4239.69696927,0,5056.72727222,0,4294.30302987,0,4398.36363592,0,4252.06060564,0,4787.30302982,0,4467.90909046,3329.93939361,42.0,42.0,?
2017-08-01 19:26:58.017566,4575.57575712,4034.66666626,4319.0303026,1030.3030302,3912.06060567,4022.3030299,4195.90909049,284.363636335,4292.24242381,556.363636308,4473.57575713,733.575757502,4210.84848443,3280.48484816,4239.69696927,0,5059.81818131,0,4295.84848442,0,4401.45454501,0,4253.09090867,0,4788.84848437,0,4466.36363592,3329.93939361,42.0,42.0,?
2017-08-01 19:26:58.020804,4577.12121166,4034.66666626,4319.0303026,1030.3030302,3929.57575718,4022.3030299,4190.75757534,284.363636335,4283.99999957,556.363636308,4472.5454541,733.575757502,4211.36363594,3280.48484816,4245.36363594,2810.66666639,5065.48484798,0,4300.48484805,0,4400.9393935,0,4252.57575715,0,4789.8787874,0,4469.45454501,3329.93939361,42.0,42.0,?
2017-08-01 19:26:58.024270,4579.18181772,4034.66666626,4318.51515108,1030.3030302,3931.63636324,4022.3030299,4185.09090867,284.363636335,4276.27272685,556.363636308,4461.72727228,733.575757502,4202.09090867,3280.48484816,4243.30302988,2810.66666639,5062.39393889,3235.15151483,4299.45454502,0,4401.45454501,0,4253.60606018,0,4789.36363588,0,4475.12121167,3329.93939361,42.0,42.0,?
2017-08-01 19:26:58.029673,4574.54545409,4034.66666626,4316.45454502,1030.3030302,3926.48484809,4022.3030299,4179.93939352,284.363636335,4283.48484806,556.363636308,4463.27272683,733.575757502,4198.48484806,3280.48484816,4237.63636321,2810.66666639,5055.69696919,3235.15151483,4296.87878745,197.818181798,4404.03030259,0,4253.60606018,0,4784.72727225,0,4470.99999955,3329.93939361,42.0,42.0,?
2017-08-01 19:26:58.033969,4571.96969651,4034.66666626,4315.42424199,1030.3030302,3926.48484809,4022.3030299,4178.39393898,284.363636335,4291.7272723,556.363636308,4471.51515107,733.575757502,4206.21212079,3280.48484816,4239.69696927,2810.66666639,5055.18181768,3235.15151483,4301.51515109,197.818181798,4408.66666623,4104.72727232,4254.63636321,0,4785.75757528,0,4467.39393895,3329.93939361,42.0,42.0,?
2017-08-01 19:26:58.041302,4580.21212075,4034.66666626,4317.99999957,1030.3030302,3932.15151476,4022.3030299,4178.39393898,284.363636335,4288.12121169,556.363636308,4469.96969652,733.575757502,4203.63636322,3280.48484816,4244.33333291,2810.66666639,5057.24242374,3235.15151483,4305.12121169,197.818181798,4412.78787835,4104.72727232,4257.21212079,1504.24242409,4794.51515104,0,4472.5454541,3329.93939361,42.0,42.0,?
2017-08-01 19:26:58.048446,4581.7575753,4034.66666626,4318.51515108,1030.3030302,3929.57575718,4022.3030299,4171.18181776,284.363636335,4287.09090866,556.363636308,4467.90909046,733.575757502,4191.27272685,3280.48484816,4238.15151473,2810.66666639,5054.66666616,3235.15151483,4296.36363593,197.818181798,4414.33333289,4104.72727232,4257.7272723,1504.24242409,4795.54545407,1075.63636353,4473.57575713,3329.93939361,42.0,42.0,?
2017-08-01 19:26:58.056020,4580.72727227,4034.66666626,4319.54545411,1030.3030302,3919.7878784,4022.3030299,4163.45454504,284.363636335,4295.3333329,556.363636308,4473.06060561,733.575757502,4190.75757534,3280.48484816,4230.424242,2810.66666639,5048.9999995,3235.15151483,4291.21212078,210.181818161,4413.81818138,4104.72727232,4258.24242382,1504.24242409,4795.54545407,1075.63636353,4470.48484804,3329.93939361,42.0,42.0,?
2017-08-01 19:26:58.063513,4581.24242378,4034.66666626,4318.51515108,1030.3030302,3920.30302991,4022.3030299,4163.96969655,284.363636335,4296.36363593,556.363636308,4476.66666622,733.575757502,4203.1212117,3280.48484816,4235.57575715,2810.66666639,5047.96969646,3235.15151483,4300.48484805,210.181818161,4414.84848441,4112.96969656,4257.7272723,1504.24242409,4798.63636316,1075.63636353,4472.5454541,3329.93939361,42.0,42.0,?
2017-08-01 19:26:58.079392,4581.7575753,4034.66666626,4315.93939351,1030.3030302,3927.51515112,4022.3030299,4172.21212079,284.363636335,4288.63636321,556.363636308,4476.1515147,733.575757502,4212.39393897,3280.48484816,4244.33333291,2810.66666639,5054.66666616,3235.15151483,4303.06060563,210.181818161,4417.9393935,4112.96969656,4255.66666624,1504.24242409,4800.69696922,1075.63636353,4477.69696925,3329.93939361,42.0,42.0,?
2017-08-01 19:26:58.087579,4585.87878742,4034.66666626,4317.99999957,1030.3030302,3929.57575718,4022.3030299,4175.8181814,284.363636335,4287.60606018,556.363636308,4474.09090864,733.575757502,4206.72727231,3280.48484816,4247.93939351,2810.66666639,5056.72727222,3235.15151483,4296.36363593,210.181818161,4423.60606016,4112.96969656,4256.18181776,1504.24242409,4804.30302982,1075.63636353,4480.78787834,3329.93939361,42.0,42.0,?
2017-08-01 19:26:58.093891,4585.87878742,4034.66666626,4316.45454502,1030.3030302,3929.57575718,4022.3030299,4169.1212117,284.363636335,4289.66666624,556.363636308,4474.60606016,733.575757502,4197.96969655,3280.48484816,4248.96969654,2810.66666639,5056.72727222,3235.15151483,4305.63636321,210.181818161,4431.84848441,4112.96969656,4260.81818139,1504.24242409,4808.42424194,1075.63636353,4484.39393895,3329.93939361,42.0,42.0,?
2017-08-01 19:26:58.102876,4577.63636318,4034.66666626,4315.42424199,1030.3030302,3925.45454506,4022.3030299,4162.42424201,284.363636335,4286.57575715,556.363636308,4471.51515107,733.575757502,4201.57575716,3280.48484816,4249.99999958,2810.66666639,5065.48484798,3235.15151483,4312.3333329,210.181818161,4431.84848441,4112.96969656,4261.33333291,1504.24242409,4808.42424194,1075.63636353,4484.39393895,3329.93939361,42.0,42.0,?
2017-08-01 19:26:58.112713,4577.63636318,4034.66666626,4317.48484805,1030.3030302,3920.30302991,4022.3030299,4163.45454504,284.363636335,4291.7272723,556.363636308,4467.39393895,733.575757502,4206.21212079,3280.48484816,4251.03030261,2810.66666639,5065.99999949,3235.15151483,4300.48484805,210.181818161,4424.12121168,4112.96969656,4256.69696927,1504.24242409,4803.27272679,1075.63636353,4476.1515147,3329.93939361,42.0,42.0,?
2017-08-01 19:26:58.115569,4577.12121166,4034.66666626,4317.48484805,1030.3030302,3924.93939355,4022.3030299,4165.5151511,284.363636335,4291.7272723,556.363636308,4469.45454501,733.575757502,4203.63636322,3280.48484816,4255.15151473,2810.66666639,5061.36363586,3235.15151483,4298.93939351,210.181818161,4421.03030259,4112.96969656,4254.63636321,1504.24242409,4802.24242376,1075.63636353,4472.5454541,3329.93939361,42.0,42.0,?
2017-08-01 19:26:58.120899,4579.69696924,4034.66666626,4316.96969654,1030.3030302,3930.60606021,4022.3030299,4163.45454504,284.363636335,4295.3333329,556.363636308,4474.60606016,733.575757502,4200.54545413,3280.48484816,4258.75757533,2810.66666639,5067.54545404,3235.15151483,4304.09090866,210.181818161,4424.12121168,4112.96969656,4257.7272723,1504.24242409,4805.33333285,1075.63636353,4478.21212076,3329.93939361,42.0,42.0,?
2017-08-01 19:26:58.127306,4575.0606056,4034.66666626,4316.45454502,1030.3030302,3925.96969658,4022.3030299,4163.96969655,284.363636335,4293.78787836,556.363636308,4475.63636319,733.575757502,4200.54545413,3280.48484816,4255.15151473,2810.66666639,5072.69696919,3235.15151483,4299.45454502,210.181818161,4424.63636319,4112.96969656,4259.78787836,1504.24242409,4802.24242376,1075.63636353,4481.30302985,3329.93939361,42.0,42.0,?
2017-08-01 19:26:58.134310,4576.09090863,4034.66666626,4316.45454502,1030.3030302,3924.42424203,4022.3030299,4165.5151511,284.363636335,4293.78787836,556.363636308,4474.60606016,733.575757502,4199.5151511,3280.48484816,4253.60606018,2810.66666639,5070.63636313,3235.15151483,4300.48484805,210.181818161,4424.12121168,4112.96969656,4256.69696927,1504.24242409,4800.1818177,1075.63636353,4482.33333289,3329.93939361,42.0,42.0,?
2017-08-01 19:26:58.142048,4579.18181772,4034.66666626,4315.93939351,1030.3030302,3926.99999961,4022.3030299,4166.54545413,284.363636335,4293.27272684,556.363636308,4473.57575713,733.575757502,4195.39393897,3280.48484816,4257.21212079,2810.66666639,5069.09090858,3235.15151483,4307.18181775,210.181818161,4429.27272683,4112.96969656,4256.69696927,1504.24242409,4806.8787874,1075.63636353,4487.48484804,3329.93939361,42.0,42.0,?
2017-08-01 19:26:58.150496,4576.60606015,4034.66666626,4314.39393896,1030.3030302,3924.42424203,4022.3030299,4166.54545413,284.363636335,4287.09090866,556.363636308,4466.36363592,733.575757502,4190.75757534,3280.48484816,4253.60606018,2810.66666639,5058.27272677,3235.15151483,4306.15151472,210.181818161,4432.87878744,4112.96969656,4259.27272685,1504.24242409,4809.96969649,1075.63636353,4489.03030258,3329.93939361,42.0,42.0,?
2017-08-01 19:26:58.159114,4576.60606015,4034.66666626,4313.87878745,1030.3030302,3919.7878784,4022.3030299,4165.5151511,284.363636335,4286.06060563,556.363636308,4459.66666622,733.575757502,4192.30302988,3280.48484816,4246.39393897,2810.66666639,5048.9999995,3235.15151483,4306.15151472,210.181818161,4428.75757531,4112.96969656,4258.24242382,1504.24242409,4802.24242376,1075.63636353,4485.42424198,3329.93939361,42.0,42.0,?
2017-08-01 19:26:58.164659,4573.51515106,4034.66666626,4313.36363593,1030.3030302,3913.0909087,4022.3030299,4167.57575716,284.363636335,4291.7272723,556.363636308,4464.81818137,733.575757502,4202.60606019,3280.48484816,4255.15151473,2810.66666639,5065.99999949,3235.15151483,4310.27272684,210.181818161,4425.66666622,4112.96969656,4257.21212079,1504.24242409,4798.63636316,1075.63636353,4484.90909046,3329.93939361,42.0,42.0,?
2017-08-01 19:26:58.172585,4576.60606015,4034.66666626,4315.42424199,1030.3030302,3902.27272688,4022.3030299,4169.63636322,284.363636335,4290.69696927,556.363636308,4473.06060561,733.575757502,4215.48484806,3280.48484816,4272.15151472,2810.66666639,5081.45454495,3235.15151483,4314.90909048,210.181818161,4431.33333289,4112.96969656,4260.81818139,1504.24242409,4809.96969649,1075.63636353,4490.06060561,3329.93939361,42.0,42.0,?
2017-08-01 19:26:58.181135,4582.27272681,4034.66666626,4316.96969654,1030.3030302,3899.69696931,4022.3030299,4167.57575716,284.363636335,4293.78787836,556.363636308,4477.18181773,733.575757502,4219.60606018,3280.48484816,4277.81818139,2810.66666639,5076.81818131,3235.15151483,4319.0303026,210.181818161,4439.57575713,4112.96969656,4262.36363594,1504.24242409,4816.15151467,1075.63636353,4497.27272682,3329.93939361,42.0,42.0,?
2017-08-01 19:26:58.189351,4581.7575753,4034.66666626,4317.99999957,1030.3030302,3905.36363597,4022.3030299,4168.60606019,284.363636335,4299.96969654,556.363636308,4476.66666622,733.575757502,4215.48484806,3280.48484816,4273.69696927,2810.66666639,5082.99999949,3235.15151483,4324.69696926,210.181818161,4444.21212077,4112.96969656,4259.27272685,1504.24242409,4816.15151467,1075.63636353,4498.81818137,3329.93939361,42.0,42.0,?
2017-08-01 19:26:58.196342,4582.27272681,4034.66666626,4317.99999957,1030.3030302,3903.81818143,4022.3030299,4171.69696928,284.363636335,4298.42424199,556.363636308,4476.66666622,733.575757502,4213.424242,3280.48484816,4268.54545412,2810.66666639,5090.2121207,3235.15151483,4322.12121169,210.181818161,4439.06060562,4112.96969656,4258.75757533,1504.24242409,4821.30302982,1075.63636353,4494.18181773,3329.93939361,42.0,42.0,?
2017-08-01 19:26:58.204110,4578.66666621,4034.66666626,4314.39393896,1030.3030302,3897.12121173,4022.3030299,4171.18181776,284.363636335,4299.96969654,556.363636308,4475.12121167,733.575757502,4211.36363594,3280.48484816,4262.87878745,2810.66666639,5074.24242374,3235.15151483,4309.24242381,210.181818161,4428.75757531,4112.96969656,4258.75757533,1504.24242409,4815.63636315,1075.63636353,4487.48484804,3329.93939361,42.0,42.0,?
2017-08-01 19:26:58.211585,4576.09090863,4034.66666626,4314.39393896,1030.3030302,3897.12121173,4022.3030299,4170.15151473,284.363636335,4300.99999957,556.363636308,4469.45454501,733.575757502,4206.21212079,3280.48484816,4261.33333291,2810.66666639,5063.42424192,3235.15151483,4305.63636321,210.181818161,4429.78787834,4112.96969656,4259.78787836,1504.24242409,4809.96969649,1075.63636353,4485.93939349,3329.93939361,42.0,42.0,?
2017-08-01 19:26:58.220182,4576.60606015,4034.66666626,4315.42424199,1030.3030302,3898.15151476,4022.3030299,4168.09090867,284.363636335,4291.7272723,556.363636308,4467.90909046,733.575757502,4205.18181776,3280.48484816,4263.90909048,2810.66666639,5068.57575707,3235.15151483,4310.78787836,210.181818161,4433.39393895,4112.96969656,4261.33333291,1504.24242409,4810.99999952,1075.63636353,4489.03030258,3329.93939361,42.0,42.0,?
2017-08-01 19:26:58.227663,4570.42424197,4034.66666626,4313.36363593,1030.3030302,3895.06060567,4022.3030299,4164.99999958,284.363636335,4289.15151472,556.363636308,4474.09090864,733.575757502,4206.21212079,3280.48484816,4264.424242,2810.66666639,5069.09090858,3235.15151483,4305.12121169,210.181818161,4425.66666622,4112.96969656,4259.27272685,1504.24242409,4805.33333285,1075.63636353,4484.90909046,3329.93939361,42.0,42.0,?
2017-08-01 19:26:58.237389,4578.66666621,4034.66666626,4317.99999957,1030.3030302,3896.0909087,4022.3030299,4163.96969655,284.363636335,4297.90909048,556.363636308,4479.24242379,733.575757502,4203.1212117,3280.48484816,4264.93939351,2810.66666639,5065.99999949,3235.15151483,4297.90909048,210.181818161,4422.06060562,4112.96969656,4260.81818139,1504.24242409,4802.75757528,1075.63636353,4480.27272682,3329.93939361,42.0,42.0,?
2017-08-01 19:26:58.243085,4578.66666621,4034.66666626,4317.99999957,1030.3030302,3899.69696931,4022.3030299,4161.90909049,284.363636335,4297.90909048,556.363636308,4477.69696925,733.575757502,4195.90909049,3280.48484816,4265.45454503,2810.66666639,5068.06060555,3235.15151483,4301.51515109,210.181818161,4428.2424238,4112.96969656,4260.81818139,1504.24242409,4804.30302982,1075.63636353,4481.30302985,3329.93939361,42.0,42.0,?
2017-08-01 19:26:58.250620,4575.0606056,4034.66666626,4315.42424199,1030.3030302,3897.12121173,4022.3030299,4157.78787837,284.363636335,4298.93939351,556.363636308,4477.18181773,733.575757502,4194.87878746,3280.48484816,4265.45454503,2810.66666639,5067.54545404,3235.15151483,4304.09090866,210.181818161,4425.66666622,4112.96969656,4261.84848442,1504.24242409,4807.90909043,1075.63636353,4480.78787834,3329.93939361,42.0,42.0,?
2017-08-01 19:26:58.259124,4574.03030257,4034.66666626,4317.99999957,1030.3030302,3896.0909087,4022.3030299,4155.2121208,284.363636335,4302.54545412,556.363636308,4478.72727228,733.575757502,4204.15151473,3280.48484816,4269.06060563,2810.66666639,5060.33333283,3235.15151483,4300.48484805,210.181818161,4421.5454541,4112.96969656,4257.7272723,1504.24242409,4813.06060558,1075.63636353,4477.18181773,3329.93939361,42.0,42.0,?
2017-08-01 19:26:58.267561,4579.18181772,4034.66666626,4320.06060563,1030.3030302,3903.81818143,4022.3030299,4154.18181777,284.363636335,4295.84848442,556.363636308,4478.21212076,733.575757502,4213.93939352,3280.48484816,4272.15151472,2810.66666639,5058.78787828,3235.15151483,4303.57575715,210.181818161,4429.78787834,4112.96969656,4254.1212117,1504.24242409,4817.1818177,1075.63636353,4482.33333289,3329.93939361,42.0,42.0,?
2017-08-01 19:26:58.274682,4587.42424197,4034.66666626,4322.6363632,1030.3030302,3906.393939,4022.3030299,4152.63636322,284.363636335,4288.12121169,556.363636308,4474.09090864,733.575757502,4214.45454503,3280.48484816,4271.12121169,2810.66666639,5065.99999949,3235.15151483,4309.24242381,210.181818161,4439.57575713,4112.96969656,4257.21212079,1504.24242409,4822.84848437,1075.63636353,4491.09090864,3329.93939361,42.0,42.0,?
2017-08-01 19:26:58.284273,4588.454545,4034.66666626,4321.60606017,1030.3030302,3904.84848446,4022.3030299,4141.8181814,284.363636335,4293.78787836,556.363636308,4473.06060561,733.575757502,4213.424242,3280.48484816,4272.15151472,2810.66666639,5072.69696919,3235.15151483,4308.7272723,210.181818161,4443.18181774,4112.96969656,4259.27272685,1504.24242409,4826.45454497,1075.63636353,4490.57575713,3329.93939361,42.0,42.0,?
2017-08-01 19:26:58.289779,4584.33333287,4034.66666626,4319.0303026,1030.3030302,3906.393939,4022.3030299,4130.48484807,284.363636335,4298.42424199,556.363636308,4477.18181773,733.575757502,4213.93939352,3280.48484816,4277.30302988,2810.66666639,5075.27272677,3235.15151483,4304.60606018,210.181818161,4444.21212077,4112.96969656,4259.27272685,1504.24242409,4825.42424194,1075.63636353,4489.03030258,3329.93939361,42.0,42.0,?
2017-08-01 19:26:58.297625,4582.27272681,4034.66666626,4321.60606017,1030.3030302,3902.27272688,4022.3030299,4130.48484807,284.363636335,4296.87878745,556.363636308,4477.69696925,733.575757502,4209.8181814,3280.48484816,4275.75757533,2810.66666639,5071.66666616,3235.15151483,4297.90909048,210.181818161,4436.48484804,4112.96969656,4257.7272723,1504.24242409,4824.39393891,1075.63636353,4490.06060561,3329.93939361,42.0,42.0,?
2017-08-01 19:26:58.306322,4578.15151469,4034.66666626,4318.51515108,1030.3030302,3894.54545416,4022.3030299,4126.36363595,284.363636335,4300.99999957,556.363636308,4475.63636319,733.575757502,4208.27272685,3280.48484816,4268.54545412,2810.66666639,5066.51515101,3235.15151483,4292.24242381,210.181818161,4429.27272683,4112.96969656,4256.69696927,1504.24242409,4822.84848437,1075.63636353,4484.39393895,3329.93939361,42.0,42.0,?
2017-08-01 19:26:58.314075,4580.21212075,4034.66666626,4318.51515108,1030.3030302,3895.57575719,4022.3030299,4112.45454504,284.363636335,4302.0303026,556.363636308,4476.66666622,733.575757502,4211.36363594,3280.48484816,4268.54545412,2810.66666639,5065.99999949,3235.15151483,4291.7272723,210.181818161,4430.81818138,4112.96969656,4258.75757533,1504.24242409,4819.24242376,1075.63636353,4481.81818137,3329.93939361,42.0,42.0,?
2017-08-01 19:26:58.322003,4582.27272681,4034.66666626,4320.57575714,1030.3030302,3897.63636325,4022.3030299,4103.18181777,284.363636335,4290.18181775,556.363636308,4473.57575713,733.575757502,4205.69696928,3280.48484816,4267.51515109,2810.66666639,5066.51515101,3235.15151483,4290.18181775,210.181818161,4428.2424238,4112.96969656,4258.24242382,1504.24242409,4812.03030255,1075.63636353,4484.39393895,3329.93939361,42.0,42.0,?
2017-08-01 19:26:58.329419,4576.60606015,4034.66666626,4318.51515108,1030.3030302,3892.99999961,4022.3030299,4097.51515111,284.363636335,4285.54545412,556.363636308,4465.8484844,733.575757502,4197.96969655,3280.48484816,4263.39393897,2810.66666639,5063.93939343,3235.15151483,4284.51515109,210.181818161,4420.51515107,4112.96969656,4254.1212117,1504.24242409,4805.84848437,1075.63636353,4483.36363592,3329.93939361,42.0,42.0,?
2017-08-01 19:26:58.337168,4574.54545409,4034.66666626,4319.0303026,1030.3030302,3895.06060567,4022.3030299,4091.33333292,284.363636335,4292.24242381,556.363636308,4463.27272683,733.575757502,4198.99999958,3280.48484816,4263.39393897,2810.66666639,5059.81818131,3235.15151483,4282.45454503,210.181818161,4419.99999956,4112.96969656,4252.57575715,1504.24242409,4809.45454497,1075.63636353,4480.78787834,3329.93939361,42.0,42.0,?
2017-08-01 19:26:58.347940,4573.51515106,4034.66666626,4320.57575714,1030.3030302,3901.24242385,4022.3030299,4088.24242383,284.363636335,4290.18181775,556.363636308,4461.72727228,733.575757502,4198.48484806,3280.48484816,4271.12121169,2810.66666639,5052.09090859,3235.15151483,4285.54545412,210.181818161,4427.21212077,4112.96969656,4254.63636321,1504.24242409,4813.06060558,1075.63636353,4481.30302985,3329.93939361,42.0,42.0,?
2017-08-01 19:26:58.353773,4573.51515106,4034.66666626,4320.57575714,1030.3030302,3902.7878784,4022.3030299,4085.66666626,284.363636335,4286.06060563,556.363636308,4457.09090865,733.575757502,4197.96969655,3280.48484816,4274.7272723,2810.66666639,5041.27272677,3235.15151483,4290.18181775,210.181818161,4432.87878744,4112.96969656,4257.7272723,1504.24242409,4816.66666619,1075.63636353,4485.93939349,3329.93939361,42.0,42.0,?
2017-08-01 19:26:58.362105,4575.0606056,4034.66666626,4321.60606017,1030.3030302,3905.36363597,4022.3030299,4085.15151474,284.363636335,4295.84848442,556.363636308,4460.18181774,733.575757502,4198.48484806,3280.48484816,4270.60606018,2810.66666639,5038.18181768,3235.15151483,4288.63636321,210.181818161,4431.33333289,4112.96969656,4259.27272685,1504.24242409,4824.39393891,1075.63636353,4491.09090864,3329.93939361,42.0,42.0,?
2017-08-01 19:26:58.369603,4571.96969651,4034.66666626,4322.12121169,1030.3030302,3911.03030264,4022.3030299,4087.2121208,284.363636335,4300.99999957,556.363636308,4467.90909046,733.575757502,4200.54545413,3280.48484816,4271.63636321,2810.66666639,5043.33333283,3235.15151483,4287.09090866,210.181818161,4430.81818138,4112.96969656,4259.27272685,1504.24242409,4826.96969649,1075.63636353,4492.12121167,3329.93939361,42.0,42.0,?
2017-08-01 19:26:58.376127,4572.99999954,4034.66666626,4321.60606017,1030.3030302,3912.57575718,4022.3030299,4082.57575717,284.363636335,4295.3333329,556.363636308,4468.93939349,733.575757502,4211.36363594,3280.48484816,4279.87878745,2810.66666639,5048.48484798,3235.15151483,4292.24242381,210.181818161,4434.9393935,4112.96969656,4262.36363594,1504.24242409,4827.99999952,1075.63636353,4490.06060561,3329.93939361,42.0,42.0,?
2017-08-01 19:26:58.385604,4574.03030257,4034.66666626,4322.12121169,1030.3030302,3912.57575718,4022.3030299,4076.9090905,284.363636335,4292.24242381,556.363636308,4466.36363592,733.575757502,4218.57575715,3280.48484816,4281.424242,2810.66666639,5048.48484798,3235.15151483,4292.24242381,210.181818161,4434.9393935,4112.96969656,4261.84848442,1504.24242409,4825.42424194,1075.63636353,4489.03030258,3329.93939361,42.0,42.0,?
2017-08-01 19:26:58.392387,4575.0606056,4034.66666626,4322.12121169,1030.3030302,3913.0909087,4022.3030299,4073.3030299,284.363636335,4293.78787836,556.363636308,4467.39393895,733.575757502,4213.93939352,3280.48484816,4275.24242381,2810.66666639,5045.39393889,3235.15151483,4281.93939351,210.181818161,4429.27272683,4112.96969656,4259.78787836,1504.24242409,4822.84848437,1075.63636353,4490.57575713,3329.93939361,42.0,42.0,?
2017-08-01 19:26:58.399618,4581.24242378,4034.66666626,4322.6363632,1030.3030302,3915.15151476,4022.3030299,4071.24242384,284.363636335,4296.36363593,556.363636308,4469.45454501,733.575757502,4212.90909049,3280.48484816,4277.81818139,2810.66666639,5046.42424192,3235.15151483,4280.90909048,210.181818161,4427.21212077,4112.96969656,4259.78787836,1504.24242409,4825.93939346,1075.63636353,4491.09090864,3329.93939361,42.0,42.0,?
2017-08-01 19:26:58.409109,4578.66666621,4034.66666626,4320.57575714,1030.3030302,3918.24242385,4022.3030299,4078.96969656,284.363636335,4299.45454502,556.363636308,4474.09090864,733.575757502,4218.06060564,3280.48484816,4287.09090866,2810.66666639,5046.93939343,3235.15151483,4285.54545412,210.181818161,4429.27272683,4112.96969656,4259.78787836,1504.24242409,4828.51515103,1075.63636353,4487.99999955,3329.93939361,42.0,42.0,?
2017-08-01 19:26:58.415817,4574.03030257,4034.66666626,4322.12121169,1030.3030302,3921.33333294,4022.3030299,4092.36363595,284.363636335,4297.39393896,556.363636308,4478.21212076,733.575757502,4217.54545412,3280.48484816,4282.45454503,2810.66666639,5047.96969646,3235.15151483,4283.99999957,210.181818161,4430.30302986,4112.96969656,4260.30302988,1504.24242409,4829.03030255,1075.63636353,4490.06060561,3329.93939361,42.0,42.0,?
2017-08-01 19:26:58.422926,4574.03030257,4034.66666626,4324.69696926,1030.3030302,3924.93939355,4022.3030299,4095.45454505,284.363636335,4293.78787836,556.363636308,4475.63636319,733.575757502,4211.87878746,3280.48484816,4265.96969654,2810.66666639,5051.06060556,3235.15151483,4281.93939351,210.181818161,4432.36363592,4112.96969656,4260.81818139,1504.24242409,4823.36363588,1075.63636353,4496.24242379,3329.93939361,42.0,42.0,?
2017-08-01 19:26:58.432038,4574.54545409,4034.66666626,4322.6363632,1030.3030302,3923.393939,4022.3030299,4088.75757535,284.363636335,4294.81818139,556.363636308,4465.33333289,733.575757502,4203.1212117,3280.48484816,4253.09090867,2810.66666639,5045.39393889,3235.15151483,4275.75757533,210.181818161,4428.2424238,4112.96969656,4259.27272685,1504.24242409,4816.15151467,1075.63636353,4493.1515147,3329.93939361,42.0,42.0,?
2017-08-01 19:26:58.439677,4575.57575712,4034.66666626,4321.60606017,1030.3030302,3918.75757537,4022.3030299,4084.12121171,284.363636335,4291.7272723,556.363636308,4456.06060561,733.575757502,4189.21212079,3280.48484816,4247.93939351,2810.66666639,5035.6060601,3235.15151483,4264.93939351,210.181818161,4420.51515107,4112.96969656,4256.18181776,1504.24242409,4814.09090861,1075.63636353,4485.93939349,3329.93939361,42.0,42.0,?
2017-08-01 19:26:58.447312,4570.93939348,4034.66666626,4319.54545411,1030.3030302,3919.7878784,4022.3030299,4083.09090868,284.363636335,4290.69696927,556.363636308,4458.12121168,733.575757502,4181.99999958,3280.48484816,4246.39393897,2810.66666639,5033.54545404,3235.15151483,4258.75757533,210.181818161,4413.30302986,4112.96969656,4255.15151473,1504.24242409,4811.51515103,1075.63636353,4484.90909046,3329.93939361,42.0,42.0,?
2017-08-01 19:26:58.454697,4570.93939348,4009.93939354,4320.57575714,1030.3030302,3917.72727234,4022.3030299,4078.96969656,284.363636335,4296.87878745,556.363636308,4463.78787834,733.575757502,4187.66666625,3280.48484816,4243.81818139,2810.66666639,5032.51515101,3235.15151483,4258.75757533,210.181818161,4409.69696926,4112.96969656,4256.18181776,1504.24242409,4809.96969649,1075.63636353,4482.33333289,3329.93939361,42.0,42.0,?
2017-08-01 19:26:58.462181,4571.454545,4009.93939354,4321.60606017,1067.39393929,3914.63636324,4022.3030299,4073.3030299,284.363636335,4297.90909048,556.363636308,4466.87878743,733.575757502,4201.57575716,3280.48484816,4248.45454503,2810.66666639,5032.51515101,3235.15151483,4262.36363594,210.181818161,4415.87878744,4112.96969656,4256.69696927,1504.24242409,4811.51515103,1075.63636353,4481.30302985,3329.93939361,42.0,42.0,?
2017-08-01 19:26:58.469560,4569.39393894,4009.93939354,4317.48484805,1067.39393929,3917.72727234,4022.3030299,4072.78787838,284.363636335,4292.24242381,556.363636308,4466.36363592,733.575757502,4211.87878746,3280.48484816,4262.36363594,2810.66666639,5044.36363586,3235.15151483,4273.69696927,210.181818161,4427.21212077,4112.96969656,4257.21212079,1504.24242409,4819.24242376,1075.63636353,4488.51515107,3338.18181785,42.0,42.0,?
2017-08-01 19:26:58.479604,4572.99999954,4009.93939354,4318.51515108,1067.39393929,3919.7878784,4022.3030299,4077.93939353,284.363636335,4288.12121169,556.363636308,4465.33333289,733.575757502,4214.96969655,3280.48484816,4268.54545412,2810.66666639,5053.63636313,3235.15151483,4282.45454503,210.181818161,4430.81818138,4112.96969656,4259.78787836,1504.24242409,4827.99999952,1075.63636353,4495.21212076,3338.18181785,42.0,42.0,?
2017-08-01 19:26:58.486061,4568.87878742,4009.93939354,4320.57575714,1067.39393929,3912.06060567,4022.3030299,4076.9090905,288.484848456,4286.06060563,556.363636308,4464.30302986,733.575757502,4208.27272685,3280.48484816,4259.78787836,2810.66666639,5049.51515101,3235.15151483,4277.81818139,210.181818161,4424.12121168,4112.96969656,4259.78787836,1504.24242409,4822.84848437,1075.63636353,4489.03030258,3338.18181785,42.0,42.0,?
2017-08-01 19:26:58.493558,4564.24242379,4009.93939354,4321.60606017,1067.39393929,3911.03030264,4022.3030299,4069.69696929,288.484848456,4284.51515109,552.242424187,4462.2424238,733.575757502,4200.03030261,3280.48484816,4258.24242382,2810.66666639,5042.81818131,3235.15151483,4269.57575715,210.181818161,4416.39393895,4112.96969656,4256.69696927,1504.24242409,4813.57575709,1075.63636353,4482.8484844,3338.18181785,42.0,42.0,?
2017-08-01 19:26:58.501352,4566.81818136,4009.93939354,4321.09090866,1067.39393929,3913.60606021,4022.3030299,4069.69696929,288.484848456,4286.57575715,552.242424187,4460.18181774,733.575757502,4197.96969655,3280.48484816,4260.30302988,2810.66666639,5039.21212071,3235.15151483,4265.96969654,210.181818161,4413.30302986,4112.96969656,4255.15151473,1504.24242409,4808.42424194,1075.63636353,4485.42424198,3338.18181785,42.0,42.0,?
2017-08-01 19:26:58.509098,4564.7575753,4009.93939354,4317.48484805,1067.39393929,3912.57575718,4022.3030299,4074.84848444,288.484848456,4286.57575715,552.242424187,4456.57575713,733.575757502,4194.87878746,3292.84848452,4250.51515109,2810.66666639,5033.03030253,3235.15151483,4264.424242,210.181818161,4413.30302986,4112.96969656,4255.15151473,1504.24242409,4803.78787831,1075.63636353,4486.45454501,3338.18181785,42.0,42.0,?
2017-08-01 19:26:58.516551,4563.72727227,4009.93939354,4322.12121169,1067.39393929,3914.63636324,4022.3030299,4077.42424202,288.484848456,4282.45454503,552.242424187,4456.57575713,733.575757502,4190.24242382,3292.84848452,4241.24242382,2814.78787851,5024.27272677,3235.15151483,4259.27272685,210.181818161,4414.84848441,4112.96969656,4255.66666624,1504.24242409,4804.81818134,1075.63636353,4484.90909046,3338.18181785,42.0,42.0,?
2017-08-01 19:26:58.525143,4565.27272682,4009.93939354,4323.15151472,1067.39393929,3919.7878784,4022.3030299,4072.27272687,288.484848456,4282.96969654,552.242424187,4461.72727228,733.575757502,4191.27272685,3292.84848452,4247.93939351,2814.78787851,5025.3030298,3235.15151483,4256.18181776,210.181818161,4412.78787835,4112.96969656,4254.63636321,1504.24242409,4801.72727225,1075.63636353,4484.90909046,3338.18181785,42.0,42.0,?
2017-08-01 19:26:58.532509,4568.36363591,4009.93939354,4320.06060563,1067.39393929,3926.99999961,4022.3030299,4068.15151474,288.484848456,4289.15151472,552.242424187,4463.27272683,733.575757502,4196.424242,3292.84848452,4258.75757533,2814.78787851,5037.15151465,3235.15151483,4260.81818139,197.818181798,4412.27272683,4112.96969656,4253.60606018,1504.24242409,4798.63636316,1075.63636353,4486.45454501,3338.18181785,42.0,42.0,?
2017-08-01 19:26:58.542682,4571.454545,4009.93939354,4323.66666623,1067.39393929,3930.60606021,4022.3030299,4072.27272687,288.484848456,4292.24242381,552.242424187,4462.75757531,733.575757502,4197.96969655,3292.84848452,4260.30302988,2814.78787851,5036.12121162,3235.15151483,4262.87878745,197.818181798,4414.33333289,4117.09090868,4254.1212117,1504.24242409,4805.33333285,1075.63636353,4488.51515107,3338.18181785,42.0,42.0,?
2017-08-01 19:26:58.547552,4567.84848439,4009.93939354,4324.18181775,1067.39393929,3926.99999961,4022.3030299,4072.78787838,288.484848456,4290.18181775,552.242424187,4462.2424238,733.575757502,4191.78787837,3292.84848452,4257.7272723,2814.78787851,5023.24242374,3235.15151483,4259.27272685,197.818181798,4413.81818138,4117.09090868,4252.57575715,1508.36363621,4805.84848437,1075.63636353,4489.03030258,3338.18181785,42.0,42.0,?
2017-08-01 19:26:58.556168,4568.36363591,4009.93939354,4323.66666623,1067.39393929,3924.42424203,4022.3030299,4071.24242384,288.484848456,4292.75757533,552.242424187,4464.30302986,733.575757502,4191.27272685,3292.84848452,4260.30302988,2814.78787851,5028.39393889,3235.15151483,4260.30302988,197.818181798,4414.84848441,4117.09090868,4256.18181776,1508.36363621,4803.78787831,1030.3030302,4490.57575713,3338.18181785,42.0,42.0,?
2017-08-01 19:26:58.564379,4570.93939348,4009.93939354,4322.12121169,1067.39393929,3929.57575718,4022.3030299,4074.84848444,288.484848456,4302.0303026,552.242424187,4466.36363592,733.575757502,4205.69696928,3292.84848452,4270.09090866,2814.78787851,5050.03030253,3235.15151483,4268.0303026,206.06060604,4422.06060562,4117.09090868,4260.30302988,1508.36363621,4812.54545406,1030.3030302,4494.18181773,3338.18181785,42.0,42.0,?
2017-08-01 19:26:58.572063,4569.39393894,4009.93939354,4320.06060563,1067.39393929,3928.03030264,4022.3030299,4075.87878747,288.484848456,4300.48484805,552.242424187,4469.96969652,733.575757502,4219.09090867,3292.84848452,4277.30302988,2814.78787851,5056.72727222,3235.15151483,4274.21212078,206.06060604,4426.18181774,4108.84848444,4259.27272685,1508.36363621,4821.81818134,1030.3030302,4494.18181773,3338.18181785,42.0,42.0,?
2017-08-01 19:26:58.580724,4568.87878742,4009.93939354,4322.12121169,1067.39393929,3922.87878749,4022.3030299,4067.12121171,288.484848456,4289.66666624,552.242424187,4466.36363592,733.575757502,4211.87878746,3292.84848452,4272.66666624,2814.78787851,5047.96969646,3235.15151483,4272.66666624,206.06060604,4425.15151471,4108.84848444,4256.69696927,1508.36363621,4819.24242376,1030.3030302,4493.66666622,3338.18181785,42.0,42.0,?
2017-08-01 19:26:58.590015,4567.84848439,4009.93939354,4323.66666623,1067.39393929,3922.87878749,4022.3030299,4062.99999959,288.484848456,4282.45454503,552.242424187,4458.63636319,733.575757502,4198.99999958,3292.84848452,4260.81818139,2814.78787851,5039.21212071,3235.15151483,4269.06060563,206.06060604,4424.63636319,4108.84848444,4256.18181776,1508.36363621,4813.57575709,1030.3030302,4493.66666622,3338.18181785,42.0,42.0,?
2017-08-01 19:26:58.598585,4570.42424197,4009.93939354,4323.66666623,1067.39393929,3919.7878784,4022.3030299,4063.51515111,288.484848456,4281.93939351,552.242424187,4460.69696925,733.575757502,4199.5151511,3292.84848452,4253.60606018,2814.78787851,5031.48484798,3235.15151483,4271.12121169,206.06060604,4424.63636319,4108.84848444,4257.21212079,1508.36363621,4817.1818177,1030.3030302,4490.57575713,3338.18181785,42.0,42.0,?
2017-08-01 19:26:58.607445,4571.454545,4009.93939354,4322.12121169,1067.39393929,3917.21212082,4022.3030299,4058.87878747,288.484848456,4283.99999957,552.242424187,4461.72727228,733.575757502,4200.54545413,3292.84848452,4254.63636321,2814.78787851,5028.39393889,3235.15151483,4281.93939351,206.06060604,4426.18181774,4108.84848444,4255.15151473,1508.36363621,4821.30302982,1030.3030302,4493.1515147,3338.18181785,42.0,42.0,?
2017-08-01 19:26:58.616741,4570.93939348,4009.93939354,4321.60606017,1067.39393929,3918.75757537,4022.3030299,4057.84848444,288.484848456,4285.54545412,552.242424187,4453.48484804,733.575757502,4193.84848443,3292.84848452,4254.63636321,2814.78787851,5028.90909041,3235.15151483,4289.66666624,206.06060604,4431.33333289,4108.84848444,4251.54545412,1508.36363621,4818.72727225,1030.3030302,4497.78787834,3338.18181785,42.0,42.0,?
2017-08-01 19:26:58.622677,4572.48484803,4009.93939354,4321.60606017,1067.39393929,3910.51515112,4022.3030299,4060.42424202,288.484848456,4285.0303026,552.242424187,4453.48484804,733.575757502,4192.30302988,3292.84848452,4251.54545412,2814.78787851,5024.27272677,3235.15151483,4293.27272684,206.06060604,4430.81818138,4108.84848444,4253.09090867,1508.36363621,4816.66666619,1030.3030302,4491.09090864,3338.18181785,42.0,42.0,?
2017-08-01 19:26:58.628218,4569.39393894,4009.93939354,4319.0303026,1067.39393929,3894.03030264,4022.3030299,4056.3030299,288.484848456,4287.60606018,552.242424187,4464.30302986,733.575757502,4197.96969655,3292.84848452,4252.06060564,2814.78787851,5025.81818132,3235.15151483,4298.42424199,206.06060604,4426.69696925,4108.84848444,4254.63636321,1508.36363621,4814.60606012,1030.3030302,4482.33333289,3338.18181785,42.0,42.0,?
2017-08-01 19:26:58.644112,4571.454545,4009.93939354,4319.54545411,1067.39393929,3894.54545416,4022.3030299,4053.72727232,288.484848456,4293.78787836,552.242424187,4465.33333289,733.575757502,4198.99999958,3292.84848452,4256.69696927,2814.78787851,5034.57575707,3235.15151483,4304.60606018,206.06060604,4427.72727228,4108.84848444,4254.1212117,1508.36363621,4812.54545406,1030.3030302,4484.39393895,3338.18181785,42.0,42.0,?
2017-08-01 19:26:58.648684,4575.57575712,4009.93939354,4317.48484805,1067.39393929,3907.93939355,4022.3030299,4065.06060565,288.484848456,4292.75757533,552.242424187,4459.15151471,733.575757502,4199.5151511,3292.84848452,4265.96969654,2814.78787851,5037.66666616,3235.15151483,4314.39393896,206.06060604,4428.75757531,4108.84848444,4255.66666624,1508.36363621,4815.12121164,1030.3030302,4490.06060561,3338.18181785,42.0,42.0,?
2017-08-01 19:26:58.650638,4576.60606015,4009.93939354,4311.30302987,1067.39393929,3907.93939355,4022.3030299,4073.81818141,288.484848456,4292.24242381,552.242424187,4463.27272683,733.575757502,4207.24242382,3292.84848452,4272.66666624,2814.78787851,5039.72727222,3235.15151483,4320.06060563,206.06060604,4433.90909047,4108.84848444,4257.7272723,1508.36363621,4818.21212073,1030.3030302,4493.66666622,3338.18181785,42.0,42.0,?
2017-08-01 19:26:58.659800,4581.24242378,4009.93939354,4310.27272684,1067.39393929,3899.69696931,4022.3030299,4064.03030262,288.484848456,4297.39393896,552.242424187,4467.39393895,733.575757502,4210.33333291,3292.84848452,4267.51515109,2814.78787851,5039.21212071,3235.15151483,4318.51515108,206.06060604,4439.06060562,4108.84848444,4256.18181776,1508.36363621,4817.1818177,1030.3030302,4492.63636319,3338.18181785,42.0,42.0,?
2017-08-01 19:26:58.665556,4578.66666621,4009.93939354,4311.30302987,1067.39393929,3900.21212082,4022.3030299,4054.75757535,288.484848456,4293.78787836,552.242424187,4464.81818137,733.575757502,4206.72727231,3292.84848452,4261.84848442,2814.78787851,5029.42424192,3235.15151483,4314.39393896,206.06060604,4432.36363592,4108.84848444,4253.60606018,1508.36363621,4808.93939346,1030.3030302,4483.36363592,3338.18181785,42.0,42.0,?
2017-08-01 19:26:58.673886,4577.12121166,4009.93939354,4311.30302987,1067.39393929,3901.24242385,4022.3030299,4062.48484808,288.484848456,4287.60606018,552.242424187,4464.30302986,733.575757502,4208.78787837,3292.84848452,4266.99999957,2814.78787851,5028.90909041,3235.15151483,4309.24242381,206.06060604,4421.03030259,4108.84848444,4253.09090867,1508.36363621,4805.84848437,1030.3030302,4477.18181773,3338.18181785,42.0,42.0,?
2017-08-01 19:26:58.680947,4583.30302984,4009.93939354,4310.27272684,1067.39393929,3899.69696931,4022.3030299,4072.78787838,288.484848456,4294.81818139,552.242424187,4465.8484844,733.575757502,4211.87878746,3292.84848452,4272.66666624,2814.78787851,5041.78787828,3235.15151483,4309.24242381,206.06060604,4424.63636319,4108.84848444,4254.63636321,1508.36363621,4810.99999952,1030.3030302,4479.75757531,3338.18181785,42.0,42.0,?
2017-08-01 19:26:58.689637,4587.42424197,4009.93939354,4309.24242381,1067.39393929,3902.7878784,4022.3030299,4071.75757535,288.484848456,4302.0303026,552.242424187,4467.90909046,733.575757502,4209.30302988,3292.84848452,4273.69696927,2814.78787851,5043.33333283,3235.15151483,4311.30302987,206.06060604,4435.96969653,4108.84848444,4254.63636321,1508.36363621,4813.06060558,1030.3030302,4483.36363592,3338.18181785,42.0,42.0,?
2017-08-01 19:26:58.697311,4586.39393894,4009.93939354,4310.78787836,1067.39393929,3903.81818143,4022.3030299,4069.18181777,288.484848456,4296.36363593,552.242424187,4472.5454541,733.575757502,4210.84848443,3292.84848452,4275.75757533,2814.78787851,5037.15151465,3235.15151483,4307.18181775,206.06060604,4434.9393935,4108.84848444,4253.09090867,1508.36363621,4815.63636315,1030.3030302,4482.8484844,3338.18181785,42.0,42.0,?
2017-08-01 19:26:58.704607,4580.21212075,4009.93939354,4310.27272684,1067.39393929,3896.0909087,4022.3030299,4067.12121171,288.484848456,4293.78787836,552.242424187,4476.66666622,733.575757502,4216.51515109,3292.84848452,4279.36363594,2814.78787851,5044.87878737,3235.15151483,4314.39393896,206.06060604,4434.42424198,4108.84848444,4253.60606018,1508.36363621,4819.24242376,1030.3030302,4477.69696925,3338.18181785,42.0,42.0,?
2017-08-01 19:26:58.714174,4580.72727227,4009.93939354,4308.21212078,1067.39393929,3890.42424204,4022.3030299,4060.42424202,288.484848456,4296.36363593,552.242424187,4476.1515147,733.575757502,4215.99999958,3292.84848452,4282.96969654,2814.78787851,5058.27272677,3235.15151483,4334.48484805,206.06060604,4442.66666622,4108.84848444,4256.69696927,1508.36363621,4824.39393891,1030.3030302,4477.69696925,3338.18181785,42.0,42.0,?
2017-08-01 19:26:58.721398,4583.81818136,4009.93939354,4310.27272684,1067.39393929,3893.51515113,4022.3030299,4058.36363596,288.484848456,4294.81818139,552.242424187,4475.12121167,733.575757502,4213.424242,3292.84848452,4279.36363594,2814.78787851,5059.3030298,3235.15151483,4334.99999957,206.06060604,4443.69696925,4108.84848444,4254.63636321,1508.36363621,4826.45454497,1030.3030302,4478.72727228,3338.18181785,42.0,42.0,?
2017-08-01 19:26:58.728607,4579.18181772,4009.93939354,4310.27272684,1067.39393929,3896.0909087,4022.3030299,4062.99999959,288.484848456,4295.3333329,552.242424187,4477.18181773,733.575757502,4211.87878746,3292.84848452,4275.75757533,2814.78787851,5050.03030253,3235.15151483,4323.66666623,206.06060604,4430.81818138,4108.84848444,4250.51515109,1508.36363621,4818.21212073,1030.3030302,4471.51515107,3338.18181785,42.0,42.0,?
2017-08-01 19:26:58.735716,4579.18181772,4009.93939354,4310.78787836,1067.39393929,3891.45454507,4022.3030299,4062.99999959,288.484848456,4294.81818139,552.242424187,4473.57575713,733.575757502,4204.66666625,3292.84848452,4273.69696927,2814.78787851,5043.84848434,3235.15151483,4325.21212078,206.06060604,4426.18181774,4108.84848444,4252.57575715,1508.36363621,4817.69696922,1030.3030302,4468.93939349,3338.18181785,42.0,42.0,?
2017-08-01 19:26:58.743974,4580.21212075,4009.93939354,4310.78787836,1067.39393929,3885.7878784,4022.3030299,4058.36363596,288.484848456,4287.60606018,552.242424187,4459.15151471,733.575757502,4192.30302988,3292.84848452,4264.93939351,2814.78787851,5038.18181768,3235.15151483,4322.6363632,206.06060604,4430.81818138,4108.84848444,4256.18181776,1508.36363621,4820.78787831,1030.3030302,4471.51515107,3338.18181785,42.0,42.0,?
2017-08-01 19:26:58.754909,4579.18181772,4009.93939354,4309.24242381,1067.39393929,3891.96969658,4022.3030299,4056.3030299,288.484848456,4289.15151472,552.242424187,4453.99999955,733.575757502,4187.66666625,3292.84848452,4260.30302988,2814.78787851,5033.54545404,3235.15151483,4312.3333329,206.06060604,4429.78787834,4108.84848444,4255.15151473,1508.36363621,4817.69696922,1030.3030302,4469.96969652,3338.18181785,42.0,42.0,?
2017-08-01 19:26:58.761975,4581.24242378,4009.93939354,4310.27272684,1067.39393929,3899.69696931,4022.3030299,4060.42424202,288.484848456,4300.48484805,552.242424187,4468.93939349,733.575757502,4198.48484806,3292.84848452,4266.48484806,2814.78787851,5036.12121162,3235.15151483,4311.81818139,206.06060604,4428.75757531,4108.84848444,4253.60606018,1508.36363621,4814.09090861,1030.3030302,4467.39393895,3338.18181785,42.0,42.0,?
2017-08-01 19:26:58.767359,4578.15151469,4009.93939354,4311.81818139,1067.39393929,3895.57575719,4022.3030299,4065.57575717,288.484848456,4303.57575715,552.242424187,4484.39393895,733.575757502,4213.93939352,3292.84848452,4274.21212078,2814.78787851,5040.75757525,3235.15151483,4320.06060563,206.06060604,4431.33333289,4108.84848444,4253.09090867,1508.36363621,4812.54545406,1030.3030302,4467.90909046,3338.18181785,42.0,42.0,?
2017-08-01 19:26:58.775422,4578.66666621,4009.93939354,4312.84848442,1067.39393929,3894.54545416,4022.3030299,4068.66666626,288.484848456,4299.96969654,552.242424187,4480.78787834,733.575757502,4219.09090867,3292.84848452,4276.27272685,2814.78787851,5041.78787828,3235.15151483,4324.69696926,206.06060604,4434.42424198,4108.84848444,4254.63636321,1508.36363621,4819.75757528,1030.3030302,4468.93939349,3338.18181785,42.0,42.0,?
2017-08-01 19:26:58.784682,4580.72727227,4009.93939354,4311.81818139,1067.39393929,3905.36363597,4022.3030299,4071.75757535,288.484848456,4296.87878745,552.242424187,4473.57575713,733.575757502,4215.48484806,3292.84848452,4276.78787836,2814.78787851,5041.78787828,3235.15151483,4322.6363632,206.06060604,4439.57575713,4108.84848444,4255.15151473,1508.36363621,4826.45454497,1030.3030302,4472.5454541,3338.18181785,42.0,42.0,?
2017-08-01 19:26:58.791384,4581.24242378,4009.93939354,4311.81818139,1067.39393929,3911.03030264,4022.3030299,4067.12121171,288.484848456,4295.84848442,552.242424187,4475.12121167,733.575757502,4211.87878746,3292.84848452,4276.27272685,2814.78787851,5044.36363586,3235.15151483,4321.09090866,206.06060604,4444.72727228,4108.84848444,4257.21212079,1508.36363621,4827.484848,1030.3030302,4477.18181773,3338.18181785,42.0,42.0,?
2017-08-01 19:26:58.800313,4585.87878742,4009.93939354,4315.42424199,1067.39393929,3907.42424203,4022.3030299,4059.9090905,288.484848456,4297.90909048,552.242424187,4477.69696925,733.575757502,4209.8181814,3292.84848452,4275.24242381,2814.78787851,5046.93939343,3235.15151483,4326.24242381,206.06060604,4443.69696925,4108.84848444,4258.75757533,1508.36363621,4829.54545406,1030.3030302,4476.66666622,3338.18181785,42.0,42.0,?
2017-08-01 19:26:58.806587,4586.39393894,4009.93939354,4313.87878745,1067.39393929,3908.45454506,4022.3030299,4062.99999959,288.484848456,4298.93939351,552.242424187,4477.69696925,733.575757502,4208.78787837,3292.84848452,4276.27272685,2814.78787851,5049.51515101,3235.15151483,4329.3333329,206.06060604,4442.15151471,4108.84848444,4257.21212079,1508.36363621,4830.06060558,1030.3030302,4478.21212076,3338.18181785,42.0,42.0,?
2017-08-01 19:26:58.815338,4583.30302984,4009.93939354,4312.84848442,1067.39393929,3916.18181779,4022.3030299,4070.21212081,288.484848456,4296.36363593,552.242424187,4477.18181773,733.575757502,4210.33333291,3292.84848452,4278.33333291,2814.78787851,5052.09090859,3235.15151483,4328.81818139,206.06060604,4446.27272683,4108.84848444,4257.21212079,1508.36363621,4830.06060558,1030.3030302,4484.39393895,3338.18181785,42.0,42.0,?
2017-08-01 19:26:58.821522,4581.7575753,4009.93939354,4314.39393896,1067.39393929,3916.18181779,4022.3030299,4068.66666626,288.484848456,4295.84848442,552.242424187,4477.18181773,733.575757502,4211.87878746,3292.84848452,4281.93939351,2814.78787851,5055.18181768,3235.15151483,4329.84848442,206.06060604,4449.36363592,4108.84848444,4256.69696927,1508.36363621,4831.09090861,1030.3030302,4484.90909046,3338.18181785,42.0,42.0,?
2017-08-01 19:26:58.829558,4581.7575753,4009.93939354,4314.90909048,1067.39393929,3911.54545415,4022.3030299,4065.06060565,288.484848456,4295.84848442,552.242424187,4477.18181773,733.575757502,4212.90909049,3292.84848452,4285.54545412,2814.78787851,5055.69696919,3235.15151483,4333.45454502,206.06060604,4449.36363592,4108.84848444,4255.66666624,1508.36363621,4832.63636315,1030.3030302,4484.39393895,3338.18181785,42.0,42.0,?
2017-08-01 19:26:58.841486,4584.84848439,4009.93939354,4314.90909048,1067.39393929,3913.60606021,4022.3030299,4066.6060602,288.484848456,4296.87878745,552.242424187,4475.63636319,733.575757502,4214.45454503,3292.84848452,4289.66666624,2814.78787851,5056.21212071,3235.15151483,4333.96969654,206.06060604,4449.87878743,4108.84848444,4257.21212079,1508.36363621,4833.66666618,1030.3030302,4486.45454501,3338.18181785,42.0,42.0,?
2017-08-01 19:26:58.846211,4580.72727227,4009.93939354,4312.84848442,1067.39393929,3912.57575718,4022.3030299,4065.06060565,288.484848456,4301.51515109,552.242424187,4475.12121167,733.575757502,4213.424242,3292.84848452,4290.18181775,2814.78787851,5053.12121162,3235.15151483,4327.27272684,206.06060604,4442.15151471,4108.84848444,4256.18181776,1508.36363621,4827.99999952,1030.3030302,4479.24242379,3338.18181785,42.0,42.0,?
2017-08-01 19:26:58.852547,4575.0606056,4009.93939354,4316.45454502,1067.39393929,3902.27272688,4022.3030299,4061.96969656,288.484848456,4305.12121169,552.242424187,4478.21212076,733.575757502,4209.30302988,3292.84848452,4284.51515109,2814.78787851,5041.78787828,3235.15151483,4319.0303026,206.06060604,4427.72727228,4108.84848444,4253.09090867,1508.36363621,4821.30302982,1030.3030302,4467.90909046,3338.18181785,42.0,42.0,?
2017-08-01 19:26:58.860633,4577.12121166,4009.93939354,4321.09090866,1067.39393929,3902.7878784,4022.3030299,4067.12121171,288.484848456,4303.57575715,552.242424187,4476.1515147,733.575757502,4211.36363594,3292.84848452,4286.57575715,2814.78787851,5042.3030298,3235.15151483,4321.09090866,206.06060604,4427.21212077,4108.84848444,4254.63636321,1508.36363621,4820.27272679,1030.3030302,4470.99999955,3338.18181785,42.0,42.0,?
2017-08-01 19:26:58.870481,4575.0606056,4009.93939354,4316.96969654,1067.39393929,3911.54545415,4022.3030299,4069.69696929,288.484848456,4299.45454502,552.242424187,4470.99999955,733.575757502,4219.09090867,3292.84848452,4295.84848442,2814.78787851,5056.21212071,3235.15151483,4329.84848442,206.06060604,4440.60606016,4108.84848444,4256.69696927,1508.36363621,4824.39393891,1030.3030302,4479.75757531,3338.18181785,42.0,42.0,?
2017-08-01 19:26:58.877842,4575.0606056,4009.93939354,4318.51515108,1067.39393929,3908.96969658,4022.3030299,4066.09090868,288.484848456,4294.81818139,552.242424187,4473.57575713,733.575757502,4220.63636321,3292.84848452,4297.39393896,2814.78787851,5059.3030298,3235.15151483,4329.3333329,206.06060604,4446.78787834,4108.84848444,4254.1212117,1508.36363621,4830.57575709,1030.3030302,4480.78787834,3338.18181785,42.0,42.0,?
2017-08-01 19:26:58.885046,4577.63636318,4009.93939354,4320.57575714,1067.39393929,3906.393939,4022.3030299,4066.6060602,288.484848456,4294.81818139,552.242424187,4474.60606016,733.575757502,4216.51515109,3292.84848452,4292.75757533,2814.78787851,5053.63636313,3235.15151483,4323.15151472,206.06060604,4444.21212077,4108.84848444,4254.1212117,1508.36363621,4829.03030255,1030.3030302,4480.27272682,3338.18181785,42.0,42.0,?
2017-08-01 19:26:58.892539,4580.72727227,4009.93939354,4317.48484805,1067.39393929,3909.48484809,4022.3030299,4067.63636323,288.484848456,4302.54545412,552.242424187,4464.30302986,733.575757502,4212.39393897,3292.84848452,4290.69696927,2814.78787851,5054.66666616,3235.15151483,4322.6363632,206.06060604,4444.21212077,4108.84848444,4256.69696927,1508.36363621,4820.78787831,1030.3030302,4482.33333289,3338.18181785,42.0,42.0,?
2017-08-01 19:26:58.900724,4583.81818136,4009.93939354,4318.51515108,1067.39393929,3906.90909052,4022.3030299,4065.06060565,288.484848456,4317.48484805,552.242424187,4461.72727228,733.575757502,4211.87878746,3292.84848452,4290.69696927,2814.78787851,5058.27272677,3235.15151483,4323.66666623,206.06060604,4443.18181774,4108.84848444,4256.18181776,1508.36363621,4818.72727225,1030.3030302,4481.81818137,3338.18181785,42.0,42.0,?
2017-08-01 19:26:58.907780,4581.7575753,4009.93939354,4320.06060563,1067.39393929,3906.393939,4022.3030299,4069.69696929,288.484848456,4330.36363593,552.242424187,4474.60606016,733.575757502,4214.96969655,3292.84848452,4290.69696927,2814.78787851,5057.24242374,3235.15151483,4321.09090866,206.06060604,4440.60606016,4108.84848444,4255.15151473,1508.36363621,4821.81818134,1030.3030302,4482.8484844,3338.18181785,42.0,42.0,?
2017-08-01 19:26:58.917721,4583.30302984,4009.93939354,4320.57575714,1067.39393929,3913.0909087,4022.3030299,4070.72727232,288.484848456,4326.75757532,552.242424187,4477.18181773,733.575757502,4211.36363594,3292.84848452,4282.45454503,2814.78787851,5047.45454495,3235.15151483,4314.39393896,206.06060604,4442.66666622,4108.84848444,4254.63636321,1508.36363621,4823.8787874,1030.3030302,4486.45454501,3338.18181785,42.0,42.0,?
2017-08-01 19:26:58.923582,4585.87878742,4009.93939354,4319.0303026,1067.39393929,3912.57575718,4022.3030299,4056.81818141,288.484848456,4317.48484805,552.242424187,4466.87878743,733.575757502,4202.09090867,3292.84848452,4274.7272723,2814.78787851,5038.18181768,3235.15151483,4311.81818139,206.06060604,4445.75757531,4108.84848444,4253.60606018,1508.36363621,4825.93939346,1030.3030302,4486.45454501,3338.18181785,42.0,42.0,?
2017-08-01 19:26:58.933203,4584.33333287,4009.93939354,4319.0303026,1067.39393929,3907.93939355,4022.3030299,4057.33333293,288.484848456,4322.6363632,552.242424187,4467.90909046,733.575757502,4205.18181776,3292.84848452,4283.48484806,2814.78787851,5047.96969646,3235.15151483,4315.42424199,206.06060604,4450.39393895,4108.84848444,4255.15151473,1508.36363621,4831.09090861,1030.3030302,4485.93939349,3338.18181785,42.0,42.0,?
2017-08-01 19:26:58.939842,4581.24242378,4009.93939354,4321.60606017,1067.39393929,3909.99999961,4022.3030299,4071.75757535,288.484848456,4334.99999957,552.242424187,4477.18181773,733.575757502,4213.424242,3292.84848452,4293.78787836,2814.78787851,5062.39393889,3235.15151483,4319.54545411,206.06060604,4453.99999955,4108.84848444,4258.75757533,1508.36363621,4836.75757527,1030.3030302,4486.96969652,3338.18181785,42.0,42.0,?
2017-08-01 19:26:58.948315,4576.09090863,4009.93939354,4316.96969654,1067.39393929,3911.54545415,4022.3030299,4069.18181777,288.484848456,4335.51515108,552.242424187,4480.78787834,733.575757502,4205.69696928,3292.84848452,4287.60606018,2814.78787851,5056.21212071,3235.15151483,4318.51515108,206.06060604,4446.78787834,4108.84848444,4257.7272723,1508.36363621,4832.12121164,1030.3030302,4483.36363592,3338.18181785,42.0,42.0,?
2017-08-01 19:26:58.955642,4577.63636318,3972.84848445,4315.93939351,1067.39393929,3907.42424203,4022.3030299,4060.93939353,288.484848456,4330.87878745,552.242424187,4477.69696925,733.575757502,4199.5151511,3292.84848452,4279.36363594,2814.78787851,5041.27272677,3235.15151483,4310.78787836,206.06060604,4441.12121168,4108.84848444,4255.15151473,1508.36363621,4824.39393891,1030.3030302,4481.81818137,3338.18181785,42.0,42.0,?
2017-08-01 19:26:58.963526,4577.12121166,3972.84848445,4318.51515108,1071.51515141,3906.393939,4022.3030299,4063.51515111,288.484848456,4330.87878745,552.242424187,4473.57575713,733.575757502,4207.24242382,3292.84848452,4284.51515109,2814.78787851,5043.33333283,3235.15151483,4305.63636321,206.06060604,4444.21212077,4108.84848444,4254.63636321,1508.36363621,4823.36363588,1030.3030302,4482.8484844,3338.18181785,42.0,42.0,?
2017-08-01 19:26:58.970661,4575.0606056,3972.84848445,4316.45454502,1071.51515141,3911.03030264,4022.3030299,4065.06060565,288.484848456,4330.87878745,552.242424187,4474.60606016,733.575757502,4211.36363594,3292.84848452,4291.7272723,2814.78787851,5054.15151465,3235.15151483,4307.18181775,206.06060604,4445.2424238,4108.84848444,4253.60606018,1508.36363621,4825.93939346,1030.3030302,4483.87878743,3338.18181785,42.0,42.0,?
2017-08-01 19:26:58.980735,4582.78787833,3972.84848445,4318.51515108,1071.51515141,3917.21212082,4026.42424202,4061.96969656,288.484848456,4326.24242381,552.242424187,4480.27272682,733.575757502,4209.30302988,3292.84848452,4291.21212078,2814.78787851,5057.24242374,3235.15151483,4310.78787836,206.06060604,4443.18181774,4108.84848444,4254.63636321,1508.36363621,4829.03030255,1030.3030302,4486.45454501,3338.18181785,42.0,42.0,?
2017-08-01 19:26:58.987052,4580.72727227,3972.84848445,4317.48484805,1071.51515141,3920.81818143,4026.42424202,4062.99999959,292.606060577,4322.12121169,552.242424187,4477.18181773,733.575757502,4208.27272685,3292.84848452,4287.09090866,2814.78787851,5054.66666616,3235.15151483,4307.18181775,206.06060604,4442.66666622,4108.84848444,4255.66666624,1508.36363621,4825.93939346,1030.3030302,4488.51515107,3338.18181785,42.0,42.0,?
2017-08-01 19:26:58.993629,4572.48484803,3972.84848445,4315.93939351,1071.51515141,3917.72727234,4026.42424202,4064.03030262,292.606060577,4321.60606017,556.363636308,4468.93939349,733.575757502,4207.24242382,3292.84848452,4287.09090866,2814.78787851,5050.54545404,3235.15151483,4296.36363593,206.06060604,4432.87878744,4108.84848444,4252.57575715,1508.36363621,4820.27272679,1030.3030302,4482.8484844,3338.18181785,42.0,42.0,?
2017-08-01 19:26:59.003738,4572.99999954,3972.84848445,4318.51515108,1071.51515141,3917.21212082,4026.42424202,4059.9090905,292.606060577,4322.12121169,556.363636308,4475.12121167,737.696969623,4209.8181814,3292.84848452,4291.21212078,2814.78787851,5044.87878737,3235.15151483,4286.57575715,206.06060604,4423.60606016,4108.84848444,4248.96969654,1508.36363621,4818.21212073,1030.3030302,4475.12121167,3338.18181785,42.0,42.0,?
2017-08-01 19:26:59.010063,4577.63636318,3972.84848445,4319.0303026,1071.51515141,3919.7878784,4026.42424202,4059.9090905,292.606060577,4324.69696926,556.363636308,4481.81818137,737.696969623,4215.99999958,3280.48484816,4294.81818139,2814.78787851,5046.42424192,3235.15151483,4284.51515109,206.06060604,4431.33333289,4108.84848444,4253.09090867,1508.36363621,4820.27272679,1030.3030302,4479.75757531,3338.18181785,42.0,42.0,?
2017-08-01 19:26:59.017519,4581.24242378,3972.84848445,4316.96969654,1071.51515141,3920.30302991,4026.42424202,4062.99999959,292.606060577,4325.21212078,556.363636308,4477.69696925,737.696969623,4216.51515109,3280.48484816,4298.93939351,2802.42424214,5054.66666616,3235.15151483,4286.57575715,206.06060604,4436.99999956,4108.84848444,4257.21212079,1508.36363621,4822.84848437,1030.3030302,4485.93939349,3338.18181785,42.0,42.0,?
2017-08-01 19:26:59.025323,4578.66666621,3972.84848445,4314.39393896,1071.51515141,3920.30302991,4026.42424202,4055.78787838,292.606060577,4322.12121169,556.363636308,4477.69696925,737.696969623,4214.45454503,3280.48484816,4302.0303026,2802.42424214,5053.63636313,3231.03030271,4283.48484806,206.06060604,4427.21212077,4108.84848444,4252.57575715,1508.36363621,4817.69696922,1030.3030302,4477.18181773,3338.18181785,42.0,42.0,?
2017-08-01 19:26:59.033669,4575.0606056,3972.84848445,4316.45454502,1071.51515141,3918.24242385,4026.42424202,4043.42424202,292.606060577,4322.12121169,556.363636308,4479.75757531,737.696969623,4215.99999958,3280.48484816,4298.42424199,2802.42424214,5045.39393889,3231.03030271,4279.36363594,197.818181798,4423.09090865,4108.84848444,4251.54545412,1508.36363621,4814.60606012,1030.3030302,4469.45454501,3338.18181785,42.0,42.0,?
2017-08-01 19:26:59.042295,4574.54545409,3972.84848445,4319.0303026,1071.51515141,3918.24242385,4026.42424202,4040.84848444,292.606060577,4323.15151472,556.363636308,4469.96969652,737.696969623,4214.45454503,3280.48484816,4295.84848442,2802.42424214,5044.36363586,3231.03030271,4278.33333291,197.818181798,4427.21212077,4108.84848444,4255.66666624,1508.36363621,4817.1818177,1030.3030302,4477.69696925,3338.18181785,42.0,42.0,?
2017-08-01 19:26:59.048974,4574.54545409,3972.84848445,4318.51515108,1071.51515141,3919.7878784,4026.42424202,4044.96969657,292.606060577,4323.66666623,556.363636308,4467.90909046,737.696969623,4210.84848443,3280.48484816,4302.0303026,2802.42424214,5051.57575707,3231.03030271,4276.78787836,197.818181798,4428.2424238,4108.84848444,4256.18181776,1504.24242409,4817.1818177,1030.3030302,4483.87878743,3338.18181785,42.0,42.0,?
2017-08-01 19:26:59.057573,4578.66666621,3972.84848445,4320.57575714,1071.51515141,3920.30302991,4026.42424202,4044.96969657,292.606060577,4322.12121169,556.363636308,4474.60606016,737.696969623,4210.84848443,3280.48484816,4307.69696927,2802.42424214,5058.78787828,3231.03030271,4278.84848442,197.818181798,4427.72727228,4108.84848444,4255.66666624,1504.24242409,4818.21212073,1030.3030302,4481.30302985,3338.18181785,42.0,42.0,?
2017-08-01 19:26:59.063962,4578.15151469,3972.84848445,4320.57575714,1071.51515141,3921.84848446,4026.42424202,4043.42424202,292.606060577,4320.57575714,556.363636308,4472.03030258,737.696969623,4217.54545412,3280.48484816,4308.7272723,2802.42424214,5061.87878737,3231.03030271,4284.51515109,201.939393919,4431.84848441,4108.84848444,4256.18181776,1504.24242409,4818.21212073,1030.3030302,4483.36363592,3338.18181785,42.0,42.0,?
2017-08-01 19:26:59.071694,4578.66666621,3972.84848445,4319.54545411,1071.51515141,3925.45454506,4026.42424202,4043.93939353,292.606060577,4323.66666623,556.363636308,4470.48484804,737.696969623,4227.84848443,3280.48484816,4310.78787836,2802.42424214,5061.87878737,3231.03030271,4288.63636321,201.939393919,4437.51515107,4112.96969656,4256.69696927,1504.24242409,4821.81818134,1030.3030302,4490.06060561,3338.18181785,42.0,42.0,?
2017-08-01 19:26:59.080722,4585.87878742,3972.84848445,4320.06060563,1071.51515141,3927.51515112,4026.42424202,4044.96969657,292.606060577,4327.27272684,556.363636308,4475.12121167,737.696969623,4224.24242382,3280.48484816,4309.24242381,2802.42424214,5058.78787828,3231.03030271,4288.12121169,201.939393919,4440.09090865,4112.96969656,4256.69696927,1512.48484833,4828.51515103,1030.3030302,4492.12121167,3338.18181785,42.0,42.0,?
2017-08-01 19:26:59.087520,4581.24242378,3972.84848445,4316.96969654,1071.51515141,3923.90909052,4026.42424202,4046.51515111,292.606060577,4320.57575714,556.363636308,4467.90909046,737.696969623,4208.78787837,3280.48484816,4301.51515109,2802.42424214,5055.69696919,3231.03030271,4278.84848442,201.939393919,4431.84848441,4112.96969656,4253.60606018,1512.48484833,4825.42424194,1030.3030302,4487.48484804,3338.18181785,42.0,42.0,?
2017-08-01 19:26:59.096562,4575.57575712,3972.84848445,4317.48484805,1071.51515141,3921.84848446,4026.42424202,4044.96969657,292.606060577,4313.36363593,556.363636308,4459.66666622,737.696969623,4207.75757534,3280.48484816,4296.87878745,2802.42424214,5054.15151465,3231.03030271,4267.51515109,201.939393919,4419.48484804,4112.96969656,4252.57575715,1512.48484833,4820.27272679,1030.3030302,4482.33333289,3338.18181785,42.0,42.0,?
2017-08-01 19:26:59.104082,4572.99999954,3972.84848445,4319.0303026,1071.51515141,3918.24242385,4026.42424202,4041.87878747,292.606060577,4316.45454502,556.363636308,4465.33333289,737.696969623,4210.84848443,3280.48484816,4292.75757533,2802.42424214,5052.6060601,3231.03030271,4260.30302988,201.939393919,4413.30302986,4112.96969656,4253.09090867,1512.48484833,4816.15151467,1030.3030302,4477.69696925,3338.18181785,42.0,42.0,?
2017-08-01 19:26:59.115296,4572.48484803,3972.84848445,4317.99999957,1071.51515141,3914.12121173,4026.42424202,4042.39393899,292.606060577,4313.36363593,556.363636308,4468.42424198,737.696969623,4201.57575716,3280.48484816,4289.15151472,2802.42424214,5048.9999995,3231.03030271,4258.24242382,201.939393919,4412.27272683,4112.96969656,4252.06060564,1512.48484833,4814.09090861,1030.3030302,4477.69696925,3338.18181785,42.0,42.0,?
2017-08-01 19:26:59.120554,4577.63636318,3972.84848445,4322.12121169,1071.51515141,3916.18181779,4026.42424202,4042.9090905,292.606060577,4307.18181775,556.363636308,4463.27272683,737.696969623,4200.54545413,3280.48484816,4290.69696927,2802.42424214,5041.78787828,3231.03030271,4264.424242,201.939393919,4416.90909047,4112.96969656,4254.1212117,1512.48484833,4817.69696922,1030.3030302,4482.8484844,3338.18181785,42.0,42.0,?
2017-08-01 19:26:59.127163,4576.60606015,3972.84848445,4320.57575714,1071.51515141,3920.81818143,4026.42424202,4040.84848444,292.606060577,4314.90909048,556.363636308,4465.8484844,737.696969623,4210.84848443,3280.48484816,4295.84848442,2802.42424214,5040.75757525,3231.03030271,4270.60606018,201.939393919,4421.5454541,4112.96969656,4255.66666624,1512.48484833,4821.30302982,1030.3030302,4484.39393895,3338.18181785,42.0,42.0,?
2017-08-01 19:26:59.135169,4573.51515106,3972.84848445,4317.99999957,1071.51515141,3919.27272688,4026.42424202,4042.39393899,292.606060577,4323.15151472,556.363636308,4474.60606016,737.696969623,4212.90909049,3280.48484816,4296.36363593,2802.42424214,5048.48484798,3231.03030271,4263.39393897,201.939393919,4416.90909047,4112.96969656,4253.09090867,1512.48484833,4820.27272679,1030.3030302,4479.24242379,3338.18181785,42.0,42.0,?
2017-08-01 19:26:59.150245,4571.96969651,3972.84848445,4321.60606017,1071.51515141,3912.06060567,4026.42424202,4043.42424202,292.606060577,4321.09090866,556.363636308,4477.18181773,737.696969623,4208.27272685,3280.48484816,4292.24242381,2802.42424214,5048.48484798,3231.03030271,4251.03030261,201.939393919,4410.72727229,4112.96969656,4252.57575715,1512.48484833,4815.63636315,1030.3030302,4476.1515147,3338.18181785,42.0,42.0,?
2017-08-01 19:26:59.153353,4567.84848439,3972.84848445,4323.15151472,1071.51515141,3911.54545415,4026.42424202,4041.87878747,292.606060577,4320.57575714,556.363636308,4473.06060561,737.696969623,4203.1212117,3280.48484816,4290.69696927,2802.42424214,5039.72727222,3231.03030271,4251.54545412,201.939393919,4409.18181774,4112.96969656,4252.57575715,1512.48484833,4813.06060558,1030.3030302,4477.69696925,3338.18181785,42.0,42.0,?
2017-08-01 19:26:59.158671,4567.84848439,3972.84848445,4321.09090866,1071.51515141,3916.18181779,4026.42424202,4042.9090905,292.606060577,4325.72727229,556.363636308,4472.03030258,737.696969623,4202.60606019,3280.48484816,4294.81818139,2802.42424214,5042.81818131,3231.03030271,4258.24242382,201.939393919,4409.69696926,4112.96969656,4252.06060564,1512.48484833,4817.1818177,1030.3030302,4476.66666622,3338.18181785,42.0,42.0,?
2017-08-01 19:26:59.166125,4569.39393894,3972.84848445,4318.51515108,1071.51515141,3920.81818143,4026.42424202,4042.9090905,292.606060577,4324.69696926,556.363636308,4468.93939349,737.696969623,4210.33333291,3280.48484816,4301.51515109,2802.42424214,5051.06060556,3231.03030271,4260.30302988,201.939393919,4411.2424238,4112.96969656,4252.57575715,1512.48484833,4818.21212073,1030.3030302,4476.66666622,3338.18181785,42.0,42.0,?
2017-08-01 19:26:59.175336,4571.454545,3972.84848445,4323.66666623,1071.51515141,3928.03030264,4026.42424202,4042.39393899,292.606060577,4315.93939351,556.363636308,4462.2424238,737.696969623,4213.424242,3280.48484816,4302.54545412,2802.42424214,5045.39393889,3231.03030271,4259.78787836,201.939393919,4414.84848441,4112.96969656,4255.66666624,1512.48484833,4820.27272679,1030.3030302,4480.78787834,3338.18181785,42.0,42.0,?
2017-08-01 19:26:59.182501,4569.39393894,3972.84848445,4326.75757532,1071.51515141,3929.06060567,4026.42424202,4046.51515111,292.606060577,4309.24242381,556.363636308,4462.2424238,737.696969623,4207.75757534,3280.48484816,4299.45454502,2802.42424214,5044.87878737,3231.03030271,4261.33333291,201.939393919,4414.33333289,4112.96969656,4257.7272723,1512.48484833,4821.81818134,1030.3030302,4481.81818137,3338.18181785,42.0,42.0,?
2017-08-01 19:26:59.193567,4563.21212076,3972.84848445,4322.6363632,1071.51515141,3928.03030264,4026.42424202,4048.57575717,292.606060577,4308.7272723,556.363636308,4463.27272683,737.696969623,4205.18181776,3280.48484816,4298.93939351,2802.42424214,5057.75757525,3231.03030271,4262.87878745,201.939393919,4410.72727229,4112.96969656,4257.7272723,1512.48484833,4818.72727225,1030.3030302,4480.78787834,3338.18181785,42.0,42.0,?
2017-08-01 19:26:59.199291,4566.30302985,3972.84848445,4321.09090866,1071.51515141,3930.0909087,4026.42424202,4044.45454505,292.606060577,4311.30302987,556.363636308,4458.63636319,737.696969623,4202.09090867,3280.48484816,4297.90909048,2802.42424214,5052.6060601,3231.03030271,4260.81818139,201.939393919,4410.72727229,4112.96969656,4258.24242382,1512.48484833,4820.78787831,1030.3030302,4481.81818137,3338.18181785,42.0,42.0,?
2017-08-01 19:26:59.205404,4568.36363591,3972.84848445,4322.12121169,1071.51515141,3929.57575718,4026.42424202,4045.9999996,292.606060577,4314.90909048,556.363636308,4461.21212077,737.696969623,4194.87878746,3280.48484816,4293.27272684,2802.42424214,5036.12121162,3231.03030271,4257.7272723,201.939393919,4413.30302986,4112.96969656,4257.7272723,1512.48484833,4821.30302982,1030.3030302,4480.78787834,3338.18181785,42.0,42.0,?
2017-08-01 19:26:59.214010,4567.33333288,3972.84848445,4323.15151472,1071.51515141,3926.48484809,4026.42424202,4048.06060566,292.606060577,4316.96969654,556.363636308,4466.87878743,737.696969623,4198.48484806,3280.48484816,4291.7272723,2802.42424214,5045.9090904,3231.03030271,4260.30302988,201.939393919,4414.84848441,4112.96969656,4257.7272723,1512.48484833,4820.27272679,1030.3030302,4479.24242379,3338.18181785,42.0,42.0,?
2017-08-01 19:26:59.221679,4569.90909045,3972.84848445,4324.69696926,1071.51515141,3932.66666627,4026.42424202,4040.84848444,292.606060577,4314.39393896,556.363636308,4462.75757531,737.696969623,4208.27272685,3280.48484816,4299.96969654,2802.42424214,5063.93939343,3231.03030271,4264.93939351,201.939393919,4415.87878744,4112.96969656,4258.24242382,1512.48484833,4822.84848437,1030.3030302,4482.33333289,3338.18181785,42.0,42.0,?
2017-08-01 19:26:59.229026,4569.39393894,3972.84848445,4322.6363632,1071.51515141,3939.87878748,4026.42424202,4038.78787838,292.606060577,4311.81818139,556.363636308,4456.57575713,737.696969623,4207.24242382,3280.48484816,4303.06060563,2802.42424214,5059.3030298,3231.03030271,4264.424242,201.939393919,4419.48484804,4112.96969656,4257.7272723,1512.48484833,4826.45454497,1030.3030302,4486.96969652,3338.18181785,42.0,42.0,?
2017-08-01 19:26:59.238428,4569.39393894,3972.84848445,4322.12121169,1071.51515141,3937.81818142,4026.42424202,4047.03030263,292.606060577,4310.27272684,556.363636308,4459.15151471,737.696969623,4198.99999958,3280.48484816,4295.3333329,2802.42424214,5051.06060556,3231.03030271,4262.87878745,201.939393919,4421.03030259,4112.96969656,4256.69696927,1512.48484833,4827.484848,1030.3030302,4488.51515107,3338.18181785,42.0,42.0,?
2017-08-01 19:26:59.245009,4568.87878742,3972.84848445,4323.66666623,1071.51515141,3938.33333294,4026.42424202,4047.54545414,292.606060577,4307.18181775,556.363636308,4464.81818137,737.696969623,4198.99999958,3280.48484816,4292.24242381,2802.42424214,5056.72727222,3231.03030271,4263.39393897,201.939393919,4420.51515107,4112.96969656,4258.75757533,1512.48484833,4826.45454497,1030.3030302,4488.51515107,3338.18181785,42.0,42.0,?
2017-08-01 19:26:59.253829,4566.81818136,3972.84848445,4324.69696926,1071.51515141,3942.45454506,4026.42424202,4040.33333293,292.606060577,4305.12121169,556.363636308,4463.78787834,737.696969623,4205.18181776,3280.48484816,4298.93939351,2802.42424214,5060.84848434,3231.03030271,4260.30302988,201.939393919,4418.45454501,4112.96969656,4262.87878745,1512.48484833,4826.45454497,1030.3030302,4488.51515107,3338.18181785,42.0,42.0,?
2017-08-01 19:26:59.260044,4567.84848439,3972.84848445,4325.21212078,1071.51515141,3943.99999961,4026.42424202,4041.87878747,292.606060577,4310.78787836,556.363636308,4463.27272683,737.696969623,4207.24242382,3280.48484816,4302.54545412,2802.42424214,5059.81818131,3231.03030271,4259.27272685,201.939393919,4417.9393935,4112.96969656,4261.33333291,1512.48484833,4824.90909043,1030.3030302,4490.06060561,3338.18181785,42.0,42.0,?
2017-08-01 19:26:59.270280,4571.454545,3972.84848445,4325.21212078,1071.51515141,3947.0909087,4026.42424202,4051.15151475,292.606060577,4314.39393896,556.363636308,4465.8484844,737.696969623,4208.27272685,3280.48484816,4304.60606018,2802.42424214,5060.33333283,3231.03030271,4265.96969654,201.939393919,4424.63636319,4112.96969656,4256.69696927,1512.48484833,4827.99999952,1030.3030302,4500.36363591,3338.18181785,42.0,42.0,?
2017-08-01 19:26:59.277413,4579.18181772,3972.84848445,4325.72727229,1071.51515141,3949.66666627,4026.42424202,4052.69696929,292.606060577,4311.81818139,556.363636308,4465.33333289,737.696969623,4211.36363594,3280.48484816,4310.27272684,2802.42424214,5059.3030298,3231.03030271,4270.09090866,201.939393919,4428.75757531,4112.96969656,4258.24242382,1512.48484833,4832.63636315,1030.3030302,4508.09090864,3338.18181785,42.0,42.0,?
2017-08-01 19:26:59.284186,4578.15151469,3972.84848445,4324.18181775,1071.51515141,3942.96969658,4026.42424202,4046.51515111,292.606060577,4310.78787836,556.363636308,4465.33333289,737.696969623,4211.36363594,3280.48484816,4308.7272723,2802.42424214,5057.24242374,3231.03030271,4270.09090866,201.939393919,4421.5454541,4112.96969656,4260.30302988,1512.48484833,4824.39393891,1030.3030302,4496.24242379,3338.18181785,42.0,42.0,?
2017-08-01 19:26:59.290786,4569.90909045,3972.84848445,4321.60606017,1071.51515141,3927.51515112,4026.42424202,4046.51515111,292.606060577,4308.21212078,556.363636308,4465.8484844,737.696969623,4208.27272685,3280.48484816,4297.39393896,2802.42424214,5055.69696919,3231.03030271,4273.18181775,201.939393919,4413.30302986,4112.96969656,4257.7272723,1512.48484833,4817.69696922,1030.3030302,4480.27272682,3338.18181785,42.0,42.0,?
2017-08-01 19:26:59.300471,4567.84848439,3972.84848445,4322.12121169,1071.51515141,3919.27272688,4026.42424202,4047.03030263,292.606060577,4309.24242381,556.363636308,4465.33333289,737.696969623,4207.24242382,3280.48484816,4293.78787836,2802.42424214,5053.63636313,3231.03030271,4278.84848442,201.939393919,4412.78787835,4112.96969656,4255.66666624,1512.48484833,4821.30302982,1030.3030302,4476.1515147,3338.18181785,42.0,42.0,?
2017-08-01 19:26:59.306720,4568.36363591,3972.84848445,4319.54545411,1071.51515141,3920.30302991,4026.42424202,4041.36363596,292.606060577,4315.93939351,556.363636308,4467.90909046,737.696969623,4212.39393897,3280.48484816,4299.96969654,2802.42424214,5054.15151465,3231.03030271,4281.93939351,201.939393919,4413.81818138,4112.96969656,4256.18181776,1512.48484833,4817.1818177,1030.3030302,4476.1515147,3338.18181785,42.0,42.0,?
2017-08-01 19:26:59.314691,4571.96969651,3972.84848445,4317.48484805,1071.51515141,3918.24242385,4026.42424202,4039.3030299,292.606060577,4315.42424199,556.363636308,4469.96969652,737.696969623,4214.96969655,3280.48484816,4303.06060563,2802.42424214,5052.6060601,3231.03030271,4285.0303026,201.939393919,4414.84848441,4112.96969656,4257.21212079,1512.48484833,4811.51515103,1030.3030302,4475.12121167,3338.18181785,42.0,42.0,?
2017-08-01 19:26:59.324447,4575.0606056,3972.84848445,4316.96969654,1071.51515141,3912.06060567,4026.42424202,4040.33333293,292.606060577,4305.63636321,556.363636308,4465.8484844,737.696969623,4209.30302988,3280.48484816,4298.93939351,2802.42424214,5048.9999995,3231.03030271,4293.27272684,201.939393919,4421.5454541,4112.96969656,4256.69696927,1512.48484833,4819.24242376,1030.3030302,4472.03030258,3338.18181785,42.0,42.0,?
2017-08-01 19:26:59.330705,4577.63636318,3972.84848445,4314.90909048,1071.51515141,3909.48484809,4026.42424202,4037.24242384,292.606060577,4306.66666624,556.363636308,4467.39393895,737.696969623,4206.72727231,3280.48484816,4298.42424199,2802.42424214,5051.06060556,3231.03030271,4303.57575715,201.939393919,4428.75757531,4112.96969656,4256.69696927,1512.48484833,4829.03030255,1030.3030302,4469.45454501,3338.18181785,42.0,42.0,?
2017-08-01 19:26:59.339371,4582.78787833,3972.84848445,4316.45454502,1071.51515141,3906.393939,4026.42424202,4037.75757535,292.606060577,4314.90909048,556.363636308,4473.57575713,737.696969623,4215.48484806,3280.48484816,4303.57575715,2802.42424214,5054.66666616,3231.03030271,4304.60606018,201.939393919,4429.27272683,4112.96969656,4258.24242382,1512.48484833,4827.99999952,1030.3030302,4466.87878743,3338.18181785,42.0,42.0,?
2017-08-01 19:26:59.345558,4579.18181772,3972.84848445,4315.42424199,1071.51515141,3903.30302991,4026.42424202,4041.36363596,292.606060577,4309.75757533,556.363636308,4468.93939349,737.696969623,4218.57575715,3280.48484816,4306.66666624,2802.42424214,5056.21212071,3231.03030271,4300.48484805,201.939393919,4423.09090865,4112.96969656,4257.21212079,1512.48484833,4819.75757528,1030.3030302,4460.18181774,3338.18181785,42.0,42.0,?
2017-08-01 19:26:59.353772,4582.27272681,3972.84848445,4314.90909048,1071.51515141,3908.96969658,4026.42424202,4043.93939353,292.606060577,4304.60606018,556.363636308,4462.75757531,737.696969623,4213.93939352,3280.48484816,4308.21212078,2802.42424214,5060.33333283,3231.03030271,4304.60606018,201.939393919,4427.72727228,4112.96969656,4257.21212079,1512.48484833,4822.84848437,1030.3030302,4461.72727228,3338.18181785,42.0,42.0,?
2017-08-01 19:26:59.362885,4591.54545409,3972.84848445,4316.45454502,1071.51515141,3915.15151476,4026.42424202,4045.9999996,292.606060577,4311.81818139,556.363636308,4464.81818137,737.696969623,4213.93939352,3280.48484816,4307.69696927,2802.42424214,5062.39393889,3231.03030271,4312.3333329,201.939393919,4441.63636319,4112.96969656,4260.81818139,1512.48484833,4832.63636315,1030.3030302,4471.51515107,3338.18181785,42.0,42.0,?
2017-08-01 19:26:59.369603,4588.96969651,3972.84848445,4314.90909048,1071.51515141,3911.54545415,4026.42424202,4044.96969657,292.606060577,4317.99999957,556.363636308,4468.93939349,737.696969623,4217.03030261,3280.48484816,4307.18181775,2802.42424214,5058.78787828,3231.03030271,4305.12121169,201.939393919,4438.5454541,4112.96969656,4263.90909048,1512.48484833,4832.63636315,1030.3030302,4467.90909046,3338.18181785,42.0,42.0,?
2017-08-01 19:26:59.377892,4584.84848439,3972.84848445,4314.39393896,1071.51515141,3911.03030264,4026.42424202,4042.9090905,292.606060577,4319.0303026,556.363636308,4474.60606016,737.696969623,4219.60606018,3280.48484816,4309.24242381,2802.42424214,5054.66666616,3231.03030271,4295.84848442,201.939393919,4425.66666622,4112.96969656,4261.33333291,1512.48484833,4829.54545406,1030.3030302,4456.06060561,3338.18181785,42.0,42.0,?
2017-08-01 19:26:59.385150,4582.78787833,3972.84848445,4312.84848442,1071.51515141,3912.57575718,4026.42424202,4042.9090905,292.606060577,4321.09090866,556.363636308,4480.27272682,737.696969623,4224.75757534,3280.48484816,4312.3333329,2802.42424214,5051.06060556,3231.03030271,4298.93939351,201.939393919,4425.15151471,4112.96969656,4257.21212079,1512.48484833,4823.36363588,1030.3030302,4453.99999955,3338.18181785,42.0,42.0,?
2017-08-01 19:26:59.395164,4581.7575753,3972.84848445,4311.81818139,1071.51515141,3907.42424203,4026.42424202,4042.39393899,292.606060577,4322.6363632,556.363636308,4479.75757531,737.696969623,4227.84848443,3280.48484816,4312.3333329,2802.42424214,5051.57575707,3231.03030271,4300.48484805,201.939393919,4427.72727228,4112.96969656,4257.21212079,1512.48484833,4820.78787831,1030.3030302,4458.12121168,3338.18181785,42.0,42.0,?
2017-08-01 19:26:59.402560,4584.84848439,3972.84848445,4313.87878745,1071.51515141,3905.87878749,4026.42424202,4041.87878747,292.606060577,4320.06060563,556.363636308,4475.63636319,737.696969623,4222.18181776,3280.48484816,4309.24242381,2802.42424214,5057.75757525,3231.03030271,4292.24242381,201.939393919,4425.15151471,4112.96969656,4259.27272685,1512.48484833,4826.45454497,1030.3030302,4459.15151471,3338.18181785,42.0,42.0,?
2017-08-01 19:26:59.411683,4583.81818136,3972.84848445,4311.30302987,1071.51515141,3909.99999961,4026.42424202,4042.39393899,292.606060577,4318.51515108,556.363636308,4473.57575713,737.696969623,4214.45454503,3280.48484816,4309.75757533,2802.42424214,5055.69696919,3231.03030271,4287.09090866,201.939393919,4428.75757531,4112.96969656,4258.24242382,1512.48484833,4826.45454497,1030.3030302,4459.15151471,3338.18181785,42.0,42.0,?
2017-08-01 19:26:59.418444,4580.72727227,3972.84848445,4308.7272723,1071.51515141,3906.90909052,4026.42424202,4040.84848444,292.606060577,4314.90909048,556.363636308,4473.06060561,737.696969623,4213.93939352,3280.48484816,4308.7272723,2802.42424214,5048.48484798,3231.03030271,4286.06060563,201.939393919,4429.27272683,4112.96969656,4256.69696927,1512.48484833,4821.81818134,1030.3030302,4459.15151471,3338.18181785,42.0,42.0,?
2017-08-01 19:26:59.425613,4578.15151469,3972.84848445,4310.78787836,1071.51515141,3895.06060567,4026.42424202,4036.21212081,292.606060577,4311.30302987,556.363636308,4469.96969652,737.696969623,4214.45454503,3280.48484816,4303.57575715,2802.42424214,5047.45454495,3231.03030271,4285.0303026,201.939393919,4418.45454501,4112.96969656,4257.21212079,1512.48484833,4820.27272679,1030.3030302,4453.48484804,3338.18181785,42.0,42.0,?
2017-08-01 19:26:59.437224,4579.18181772,3972.84848445,4313.36363593,1071.51515141,3894.03030264,4026.42424202,4030.03030263,292.606060577,4308.21212078,556.363636308,4463.78787834,737.696969623,4212.90909049,3280.48484816,4303.06060563,2802.42424214,5044.87878737,3231.03030271,4282.45454503,201.939393919,4414.84848441,4112.96969656,4258.24242382,1512.48484833,4821.81818134,1030.3030302,4448.33333289,3338.18181785,42.0,42.0,?
2017-08-01 19:26:59.440679,4586.90909045,3972.84848445,4314.39393896,1071.51515141,3907.42424203,4026.42424202,4026.93939354,292.606060577,4310.27272684,556.363636308,4461.21212077,737.696969623,4211.87878746,3280.48484816,4305.12121169,2802.42424214,5036.12121162,3231.03030271,4280.90909048,201.939393919,4423.09090865,4112.96969656,4261.33333291,1512.48484833,4823.36363588,1030.3030302,4458.12121168,3338.18181785,42.0,42.0,?
2017-08-01 19:26:59.448291,4588.454545,3972.84848445,4311.30302987,1071.51515141,3914.12121173,4026.42424202,4030.54545414,292.606060577,4312.84848442,556.363636308,4464.30302986,737.696969623,4211.87878746,3280.48484816,4306.15151472,2802.42424214,5039.72727222,3231.03030271,4285.54545412,201.939393919,4430.30302986,4112.96969656,4262.36363594,1512.48484833,4826.45454497,1030.3030302,4466.87878743,3338.18181785,42.0,42.0,?
2017-08-01 19:26:59.457385,4585.87878742,3972.84848445,4310.27272684,1071.51515141,3907.42424203,4026.42424202,4037.24242384,292.606060577,4311.81818139,556.363636308,4465.8484844,737.696969623,4214.96969655,3280.48484816,4312.3333329,2802.42424214,5052.6060601,3231.03030271,4294.30302987,201.939393919,4430.81818138,4112.96969656,4261.33333291,1512.48484833,4831.09090861,1030.3030302,4459.66666622,3338.18181785,42.0,42.0,?
2017-08-01 19:26:59.462902,4579.18181772,4009.93939354,4310.78787836,1071.51515141,3904.33333294,4026.42424202,4039.3030299,292.606060577,4313.87878745,556.363636308,4465.8484844,737.696969623,4222.18181776,3280.48484816,4319.0303026,2802.42424214,5052.09090859,3231.03030271,4293.27272684,201.939393919,4424.12121168,4112.96969656,4259.78787836,1512.48484833,4827.99999952,1030.3030302,4450.39393895,3338.18181785,42.0,42.0,?
2017-08-01 19:26:59.470657,4571.96969651,4009.93939354,4308.7272723,1055.03030292,3904.33333294,4026.42424202,4037.24242384,292.606060577,4315.93939351,556.363636308,4471.51515107,737.696969623,4224.24242382,3280.48484816,4320.06060563,2802.42424214,5046.93939343,3231.03030271,4286.06060563,201.939393919,4418.45454501,4112.96969656,4258.24242382,1512.48484833,4817.69696922,1030.3030302,4449.87878743,3338.18181785,42.0,42.0,?
2017-08-01 19:26:59.480614,4575.57575712,4009.93939354,4309.75757533,1055.03030292,3907.93939355,4026.42424202,4041.36363596,292.606060577,4311.30302987,556.363636308,4476.66666622,737.696969623,4224.75757534,3280.48484816,4325.21212078,2802.42424214,5057.75757525,3231.03030271,4287.60606018,201.939393919,4419.48484804,4112.96969656,4257.7272723,1512.48484833,4818.21212073,1030.3030302,4450.90909046,3338.18181785,42.0,42.0,?
2017-08-01 19:26:59.487277,4578.66666621,4009.93939354,4312.3333329,1055.03030292,3916.18181779,4022.3030299,4048.06060566,292.606060577,4309.24242381,556.363636308,4471.51515107,737.696969623,4227.33333291,3280.48484816,4327.27272684,2802.42424214,5069.6060601,3231.03030271,4297.39393896,201.939393919,4428.75757531,4112.96969656,4257.21212079,1512.48484833,4829.03030255,1030.3030302,4453.48484804,3338.18181785,42.0,42.0,?
2017-08-01 19:26:59.495037,4581.24242378,4009.93939354,4315.93939351,1055.03030292,3920.30302991,4022.3030299,4047.03030263,288.484848456,4310.27272684,556.363636308,4464.30302986,737.696969623,4221.15151473,3280.48484816,4322.12121169,2802.42424214,5060.33333283,3231.03030271,4303.06060563,201.939393919,4436.48484804,4112.96969656,4257.21212079,1512.48484833,4833.15151467,1030.3030302,4463.27272683,3338.18181785,42.0,42.0,?
2017-08-01 19:26:59.501536,4579.18181772,4009.93939354,4315.93939351,1055.03030292,3923.393939,4022.3030299,4043.93939353,288.484848456,4306.15151472,556.363636308,4462.75757531,737.696969623,4211.36363594,3280.48484816,4319.54545411,2802.42424214,5048.48484798,3231.03030271,4300.48484805,201.939393919,4434.42424198,4112.96969656,4257.7272723,1512.48484833,4827.484848,1030.3030302,4470.48484804,3338.18181785,42.0,42.0,?
2017-08-01 19:26:59.511431,4570.93939348,4009.93939354,4313.87878745,1055.03030292,3923.90909052,4022.3030299,4045.48484808,288.484848456,4307.18181775,556.363636308,4465.8484844,729.454545382,4213.93939352,3280.48484816,4319.0303026,2802.42424214,5051.57575707,3231.03030271,4289.15151472,201.939393919,4426.18181774,4112.96969656,4256.18181776,1512.48484833,4820.78787831,1030.3030302,4464.81818137,3338.18181785,42.0,42.0,?
2017-08-01 19:26:59.518771,4567.84848439,4009.93939354,4316.45454502,1055.03030292,3918.24242385,4022.3030299,4045.48484808,288.484848456,4312.84848442,556.363636308,4472.5454541,729.454545382,4219.60606018,3288.7272724,4317.48484805,2802.42424214,5055.69696919,3231.03030271,4279.36363594,201.939393919,4420.51515107,4112.96969656,4256.69696927,1512.48484833,4820.27272679,1030.3030302,4456.06060561,3338.18181785,42.0,42.0,?
2017-08-01 19:26:59.526527,4569.90909045,4009.93939354,4315.42424199,1055.03030292,3914.63636324,4022.3030299,4038.27272687,288.484848456,4309.75757533,556.363636308,4472.5454541,729.454545382,4215.99999958,3288.7272724,4319.0303026,2810.66666639,5053.12121162,3231.03030271,4284.51515109,201.939393919,4421.5454541,4112.96969656,4256.69696927,1512.48484833,4819.75757528,1030.3030302,4458.12121168,3338.18181785,42.0,42.0,?
2017-08-01 19:26:59.534599,4574.03030257,4009.93939354,4313.87878745,1055.03030292,3917.21212082,4022.3030299,4028.9999996,288.484848456,4303.06060563,556.363636308,4462.2424238,729.454545382,4209.8181814,3288.7272724,4315.42424199,2810.66666639,5046.93939343,3239.27272695,4291.21212078,201.939393919,4426.18181774,4112.96969656,4256.69696927,1512.48484833,4820.78787831,1030.3030302,4465.8484844,3338.18181785,42.0,42.0,?
2017-08-01 19:26:59.543442,4573.51515106,4009.93939354,4314.90909048,1055.03030292,3918.24242385,4022.3030299,4028.48484808,288.484848456,4304.60606018,556.363636308,4458.63636319,729.454545382,4209.8181814,3288.7272724,4310.78787836,2810.66666639,5043.84848434,3239.27272695,4284.51515109,210.181818161,4428.75757531,4112.96969656,4255.66666624,1512.48484833,4823.8787874,1030.3030302,4466.87878743,3338.18181785,42.0,42.0,?
2017-08-01 19:26:59.548567,4569.90909045,4009.93939354,4312.84848442,1055.03030292,3921.84848446,4022.3030299,4039.3030299,288.484848456,4309.75757533,556.363636308,4469.96969652,729.454545382,4217.03030261,3288.7272724,4320.06060563,2810.66666639,5051.06060556,3239.27272695,4283.48484806,210.181818161,4426.18181774,4108.84848444,4255.66666624,1512.48484833,4823.8787874,1030.3030302,4464.81818137,3338.18181785,42.0,42.0,?
2017-08-01 19:26:59.556662,4571.454545,4009.93939354,4316.45454502,1055.03030292,3926.99999961,4022.3030299,4045.48484808,288.484848456,4311.30302987,556.363636308,4473.57575713,729.454545382,4225.78787837,3288.7272724,4328.81818139,2810.66666639,5061.36363586,3239.27272695,4293.78787836,210.181818161,4424.63636319,4108.84848444,4256.69696927,1500.12121197,4824.39393891,1030.3030302,4462.75757531,3338.18181785,42.0,42.0,?
2017-08-01 19:26:59.565051,4568.87878742,4009.93939354,4315.42424199,1055.03030292,3924.42424203,4022.3030299,4041.87878747,288.484848456,4314.90909048,556.363636308,4468.93939349,729.454545382,4226.8181814,3288.7272724,4323.15151472,2810.66666639,5057.24242374,3239.27272695,4294.30302987,210.181818161,4427.21212077,4108.84848444,4255.66666624,1500.12121197,4820.78787831,1050.9090908,4462.2424238,3338.18181785,42.0,42.0,?
2017-08-01 19:26:59.572539,4565.27272682,4009.93939354,4311.30302987,1055.03030292,3925.45454506,4022.3030299,4041.36363596,288.484848456,4320.57575714,556.363636308,4472.03030258,729.454545382,4222.18181776,3288.7272724,4320.06060563,2810.66666639,5048.9999995,3239.27272695,4289.15151472,201.939393919,4427.72727228,4108.84848444,4254.1212117,1500.12121197,4815.63636315,1050.9090908,4462.2424238,3338.18181785,42.0,42.0,?
2017-08-01 19:26:59.581846,4566.30302985,4009.93939354,4312.84848442,1055.03030292,3930.0909087,4022.3030299,4046.51515111,288.484848456,4315.93939351,556.363636308,4474.60606016,729.454545382,4219.09090867,3288.7272724,4323.66666623,2810.66666639,5054.15151465,3239.27272695,4293.78787836,201.939393919,4427.72727228,4112.96969656,4256.18181776,1500.12121197,4815.63636315,1050.9090908,4463.27272683,3338.18181785,42.0,42.0,?
2017-08-01 19:26:59.587916,4566.30302985,4009.93939354,4313.36363593,1055.03030292,3928.54545415,4022.3030299,4047.03030263,288.484848456,4305.63636321,556.363636308,4468.42424198,729.454545382,4217.03030261,3288.7272724,4322.6363632,2810.66666639,5061.36363586,3239.27272695,4300.48484805,201.939393919,4432.87878744,4112.96969656,4258.24242382,1500.12121197,4820.27272679,1050.9090908,4468.42424198,3338.18181785,42.0,42.0,?
2017-08-01 19:26:59.596297,4567.33333288,4009.93939354,4316.45454502,1055.03030292,3929.06060567,4022.3030299,4043.93939353,288.484848456,4304.60606018,556.363636308,4463.27272683,729.454545382,4215.99999958,3288.7272724,4313.87878745,2810.66666639,5059.3030298,3239.27272695,4298.93939351,201.939393919,4432.87878744,4112.96969656,4258.24242382,1500.12121197,4828.51515103,1050.9090908,4471.51515107,3338.18181785,42.0,42.0,?
2017-08-01 19:26:59.603615,4563.72727227,4009.93939354,4316.96969654,1055.03030292,3928.03030264,4022.3030299,4043.42424202,288.484848456,4308.21212078,556.363636308,4464.81818137,729.454545382,4214.96969655,3288.7272724,4307.18181775,2810.66666639,5056.21212071,3239.27272695,4291.21212078,201.939393919,4419.99999956,4112.96969656,4258.24242382,1500.12121197,4824.90909043,1050.9090908,4462.75757531,3338.18181785,42.0,42.0,?
2017-08-01 19:26:59.613468,4557.03030257,4009.93939354,4314.90909048,1055.03030292,3917.72727234,4022.3030299,4043.93939353,288.484848456,4307.69696927,556.363636308,4465.8484844,729.454545382,4212.39393897,3288.7272724,4308.7272723,2810.66666639,5050.54545404,3239.27272695,4289.15151472,201.939393919,4413.30302986,4112.96969656,4256.69696927,1500.12121197,4812.54545406,1050.9090908,4453.99999955,3338.18181785,42.0,42.0,?
2017-08-01 19:26:59.620244,4559.09090864,4009.93939354,4315.42424199,1055.03030292,3914.63636324,4022.3030299,4042.9090905,288.484848456,4308.21212078,556.363636308,4467.39393895,729.454545382,4211.87878746,3288.7272724,4308.7272723,2810.66666639,5044.36363586,3239.27272695,4291.7272723,201.939393919,4424.63636319,4112.96969656,4256.18181776,1500.12121197,4811.51515103,1050.9090908,4457.60606016,3338.18181785,42.0,42.0,?
2017-08-01 19:26:59.627740,4560.12121167,4009.93939354,4314.90909048,1055.03030292,3922.87878749,4022.3030299,4036.72727232,288.484848456,4306.66666624,556.363636308,4464.30302986,729.454545382,4208.27272685,3288.7272724,4305.12121169,2810.66666639,5050.54545404,3239.27272695,4291.7272723,201.939393919,4432.87878744,4112.96969656,4258.24242382,1500.12121197,4821.30302982,1050.9090908,4461.21212077,3338.18181785,42.0,42.0,?
2017-08-01 19:26:59.635611,4560.63636318,4009.93939354,4314.90909048,1055.03030292,3921.33333294,4022.3030299,4036.72727232,288.484848456,4299.96969654,556.363636308,4459.66666622,729.454545382,4203.1212117,3288.7272724,4305.63636321,2810.66666639,5055.18181768,3239.27272695,4290.18181775,201.939393919,4424.12121168,4112.96969656,4257.21212079,1500.12121197,4821.81818134,1050.9090908,4456.57575713,3338.18181785,42.0,42.0,?
2017-08-01 19:26:59.646743,4560.63636318,4009.93939354,4314.39393896,1055.03030292,3913.0909087,4022.3030299,4041.36363596,288.484848456,4296.87878745,556.363636308,4464.81818137,729.454545382,4204.66666625,3288.7272724,4307.69696927,2810.66666639,5050.54545404,3239.27272695,4290.18181775,201.939393919,4419.48484804,4112.96969656,4254.63636321,1500.12121197,4813.06060558,1050.9090908,4452.45454501,3338.18181785,42.0,42.0,?
2017-08-01 19:26:59.652810,4559.60606015,4009.93939354,4312.84848442,1055.03030292,3920.81818143,4022.3030299,4039.81818141,288.484848456,4303.57575715,556.363636308,4466.36363592,729.454545382,4207.75757534,3288.7272724,4309.24242381,2810.66666639,5050.03030253,3239.27272695,4290.69696927,201.939393919,4427.72727228,4112.96969656,4256.69696927,1500.12121197,4817.69696922,1050.9090908,4458.12121168,3338.18181785,42.0,42.0,?
2017-08-01 19:26:59.659088,4562.18181773,4009.93939354,4313.87878745,1055.03030292,3930.60606021,4022.3030299,4039.3030299,288.484848456,4311.30302987,556.363636308,4459.66666622,729.454545382,4207.75757534,3288.7272724,4312.84848442,2810.66666639,5053.63636313,3239.27272695,4289.66666624,201.939393919,4432.36363592,4112.96969656,4258.24242382,1500.12121197,4828.51515103,1050.9090908,4467.39393895,3338.18181785,42.0,42.0,?
2017-08-01 19:26:59.666574,4562.69696924,4009.93939354,4315.42424199,1055.03030292,3928.54545415,4022.3030299,4046.51515111,288.484848456,4312.84848442,556.363636308,4463.27272683,729.454545382,4210.33333291,3288.7272724,4317.48484805,2810.66666639,5055.69696919,3239.27272695,4286.06060563,201.939393919,4431.33333289,4112.96969656,4254.63636321,1500.12121197,4826.96969649,1050.9090908,4468.93939349,3338.18181785,42.0,42.0,?
2017-08-01 19:26:59.674451,4562.18181773,4009.93939354,4314.90909048,1055.03030292,3925.96969658,4022.3030299,4049.6060602,288.484848456,4309.24242381,556.363636308,4474.60606016,729.454545382,4214.45454503,3288.7272724,4316.45454502,2810.66666639,5057.75757525,3239.27272695,4281.424242,201.939393919,4428.75757531,4112.96969656,4254.63636321,1500.12121197,4823.36363588,1050.9090908,4465.8484844,3338.18181785,42.0,42.0,?
2017-08-01 19:26:59.685560,4562.69696924,4009.93939354,4314.90909048,1055.03030292,3929.57575718,4022.3030299,4051.66666626,288.484848456,4305.63636321,556.363636308,4473.06060561,729.454545382,4213.424242,3288.7272724,4311.81818139,2810.66666639,5056.72727222,3239.27272695,4284.51515109,201.939393919,4429.27272683,4112.96969656,4257.7272723,1500.12121197,4822.33333285,1050.9090908,4467.90909046,3338.18181785,42.0,42.0,?
2017-08-01 19:26:59.691547,4562.18181773,4009.93939354,4315.42424199,1055.03030292,3930.0909087,4022.3030299,4053.21212081,288.484848456,4308.7272723,556.363636308,4464.30302986,729.454545382,4209.30302988,3288.7272724,4308.7272723,2810.66666639,5054.66666616,3239.27272695,4285.54545412,201.939393919,4431.84848441,4112.96969656,4255.15151473,1500.12121197,4819.24242376,1050.9090908,4471.51515107,3338.18181785,42.0,42.0,?
2017-08-01 19:26:59.699560,4563.72727227,4009.93939354,4316.45454502,1055.03030292,3927.51515112,4022.3030299,4049.6060602,288.484848456,4312.3333329,556.363636308,4465.8484844,729.454545382,4209.8181814,3288.7272724,4310.27272684,2810.66666639,5052.6060601,3239.27272695,4281.424242,201.939393919,4430.30302986,4112.96969656,4252.06060564,1500.12121197,4818.21212073,1050.9090908,4474.09090864,3338.18181785,42.0,42.0,?
2017-08-01 19:26:59.705972,4560.63636318,4009.93939354,4314.90909048,1055.03030292,3929.06060567,4022.3030299,4049.6060602,288.484848456,4308.21212078,556.363636308,4468.42424198,729.454545382,4212.90909049,3288.7272724,4311.30302987,2810.66666639,5050.03030253,3239.27272695,4282.96969654,201.939393919,4429.27272683,4112.96969656,4255.15151473,1500.12121197,4820.78787831,1050.9090908,4472.5454541,3338.18181785,42.0,42.0,?
2017-08-01 19:26:59.713664,4561.1515147,4009.93939354,4319.0303026,1055.03030292,3934.72727233,4022.3030299,4054.24242384,288.484848456,4304.60606018,556.363636308,4465.33333289,729.454545382,4212.39393897,3288.7272724,4308.21212078,2810.66666639,5052.6060601,3239.27272695,4286.06060563,201.939393919,4435.45454501,4112.96969656,4257.7272723,1500.12121197,4828.51515103,1050.9090908,4472.5454541,3338.18181785,42.0,42.0,?
2017-08-01 19:26:59.721124,4567.33333288,4009.93939354,4322.12121169,1055.03030292,3935.24242385,4022.3030299,4055.78787838,288.484848456,4310.27272684,556.363636308,4463.27272683,729.454545382,4209.30302988,3288.7272724,4309.24242381,2810.66666639,5056.72727222,3239.27272695,4288.12121169,201.939393919,4436.48484804,4112.96969656,4256.18181776,1500.12121197,4833.15151467,1050.9090908,4480.27272682,3338.18181785,42.0,42.0,?
2017-08-01 19:26:59.730000,4562.69696924,4009.93939354,4315.93939351,1055.03030292,3929.57575718,4022.3030299,4054.75757535,288.484848456,4317.48484805,556.363636308,4468.42424198,729.454545382,4206.21212079,3288.7272724,4310.27272684,2810.66666639,5051.06060556,3239.27272695,4283.48484806,201.939393919,4427.21212077,4112.96969656,4254.63636321,1500.12121197,4821.81818134,1050.9090908,4479.75757531,3338.18181785,42.0,42.0,?
2017-08-01 19:26:59.736836,4557.54545409,4009.93939354,4317.48484805,1055.03030292,3926.99999961,4022.3030299,4054.75757535,288.484848456,4317.48484805,556.363636308,4475.12121167,729.454545382,4208.78787837,3288.7272724,4308.7272723,2810.66666639,5041.78787828,3239.27272695,4277.81818139,201.939393919,4421.03030259,4112.96969656,4257.7272723,1500.12121197,4813.57575709,1050.9090908,4466.87878743,3338.18181785,42.0,42.0,?
2017-08-01 19:26:59.744561,4560.12121167,4009.93939354,4321.60606017,1055.03030292,3934.72727233,4022.3030299,4054.75757535,288.484848456,4312.3333329,556.363636308,4477.69696925,729.454545382,4214.45454503,3288.7272724,4313.87878745,2810.66666639,5044.36363586,3239.27272695,4281.424242,201.939393919,4427.72727228,4112.96969656,4260.30302988,1500.12121197,4816.66666619,1050.9090908,4467.90909046,3338.18181785,42.0,42.0,?
2017-08-01 19:26:59.754292,4566.81818136,4009.93939354,4319.54545411,1055.03030292,3940.90909052,4022.3030299,4059.9090905,288.484848456,4308.7272723,556.363636308,4476.66666622,729.454545382,4217.03030261,3288.7272724,4322.12121169,2810.66666639,5053.63636313,3239.27272695,4287.60606018,201.939393919,4438.03030259,4112.96969656,4261.33333291,1500.12121197,4820.27272679,1050.9090908,4484.39393895,3338.18181785,42.0,42.0,?
2017-08-01 19:26:59.759649,4568.36363591,4009.93939354,4321.60606017,1055.03030292,3938.84848445,4022.3030299,4061.45454505,288.484848456,4307.18181775,556.363636308,4474.60606016,729.454545382,4215.99999958,3288.7272724,4322.12121169,2810.66666639,5058.78787828,3239.27272695,4281.424242,201.939393919,4435.45454501,4112.96969656,4259.78787836,1500.12121197,4817.69696922,1050.9090908,4482.33333289,3338.18181785,42.0,42.0,?
2017-08-01 19:26:59.767692,4562.69696924,4009.93939354,4320.57575714,1055.03030292,3935.75757536,4022.3030299,4054.75757535,288.484848456,4307.69696927,556.363636308,4469.45454501,729.454545382,4218.06060564,3288.7272724,4319.0303026,2810.66666639,5058.27272677,3239.27272695,4275.75757533,201.939393919,4427.72727228,4112.96969656,4257.7272723,1500.12121197,4812.54545406,1050.9090908,4472.03030258,3338.18181785,42.0,42.0,?
2017-08-01 19:26:59.776356,4565.27272682,4009.93939354,4316.45454502,1055.03030292,3939.36363597,4022.3030299,4053.21212081,288.484848456,4306.66666624,556.363636308,4462.2424238,729.454545382,4221.15151473,3288.7272724,4321.09090866,2810.66666639,5055.69696919,3239.27272695,4278.33333291,201.939393919,4428.75757531,4112.96969656,4258.75757533,1500.12121197,4814.09090861,1050.9090908,4476.1515147,3338.18181785,42.0,42.0,?
2017-08-01 19:26:59.787263,4564.7575753,4009.93939354,4319.0303026,1055.03030292,3941.93939355,4022.3030299,4055.27272687,288.484848456,4304.60606018,556.363636308,4462.2424238,729.454545382,4219.60606018,3288.7272724,4323.15151472,2810.66666639,5052.09090859,3239.27272695,4274.7272723,201.939393919,4430.81818138,4112.96969656,4256.69696927,1500.12121197,4815.63636315,1050.9090908,4477.69696925,3338.18181785,42.0,42.0,?
2017-08-01 19:26:59.794132,4560.63636318,4009.93939354,4322.12121169,1055.03030292,3941.42424203,4022.3030299,4059.39393899,288.484848456,4305.63636321,556.363636308,4466.87878743,729.454545382,4214.96969655,3288.7272724,4320.57575714,2810.66666639,5052.09090859,3239.27272695,4268.54545412,201.939393919,4426.69696925,4112.96969656,4254.1212117,1500.12121197,4815.12121164,1050.9090908,4472.03030258,3338.18181785,42.0,42.0,?
2017-08-01 19:26:59.805612,4563.72727227,4009.93939354,4319.54545411,1055.03030292,3943.48484809,4022.3030299,4057.84848444,288.484848456,4304.60606018,556.363636308,4464.81818137,729.454545382,4211.36363594,3288.7272724,4319.54545411,2810.66666639,5057.24242374,3239.27272695,4272.15151472,201.939393919,4427.21212077,4112.96969656,4256.69696927,1500.12121197,4819.24242376,1050.9090908,4475.12121167,3338.18181785,42.0,42.0,?
2017-08-01 19:26:59.811042,4565.27272682,4009.93939354,4318.51515108,1055.03030292,3943.99999961,4022.3030299,4050.12121172,288.484848456,4307.69696927,556.363636308,4464.30302986,729.454545382,4211.87878746,3288.7272724,4320.57575714,2810.66666639,5057.24242374,3239.27272695,4273.69696927,201.939393919,4431.33333289,4112.96969656,4259.78787836,1500.12121197,4819.75757528,1050.9090908,4482.33333289,3338.18181785,42.0,42.0,?
2017-08-01 19:26:59.815607,4566.30302985,4009.93939354,4321.09090866,1055.03030292,3939.87878748,4022.3030299,4050.63636323,288.484848456,4314.90909048,556.363636308,4469.45454501,729.454545382,4214.96969655,3288.7272724,4320.57575714,2810.66666639,5053.12121162,3239.27272695,4266.48484806,201.939393919,4428.2424238,4112.96969656,4260.30302988,1500.12121197,4816.66666619,1050.9090908,4481.30302985,3338.18181785,42.0,42.0,?
2017-08-01 19:26:59.824312,4563.21212076,4009.93939354,4319.0303026,1055.03030292,3939.36363597,4022.3030299,4059.9090905,288.484848456,4315.42424199,556.363636308,4470.48484804,729.454545382,4221.15151473,3288.7272724,4322.12121169,2810.66666639,5056.72727222,3239.27272695,4264.424242,201.939393919,4424.12121168,4112.96969656,4261.84848442,1500.12121197,4819.75757528,1050.9090908,4478.72727228,3338.18181785,42.0,42.0,?
2017-08-01 19:26:59.831621,4560.12121167,4009.93939354,4317.99999957,1055.03030292,3940.90909052,4022.3030299,4061.45454505,288.484848456,4307.18181775,556.363636308,4470.48484804,729.454545382,4228.87878746,3288.7272724,4327.78787836,2810.66666639,5064.45454495,3239.27272695,4270.09090866,201.939393919,4427.72727228,4112.96969656,4264.93939351,1500.12121197,4827.99999952,1050.9090908,4482.33333289,3338.18181785,42.0,42.0,?
2017-08-01 19:26:59.839522,4565.78787833,4009.93939354,4323.15151472,1055.03030292,3935.75757536,4022.3030299,4056.81818141,288.484848456,4302.54545412,556.363636308,4470.99999955,729.454545382,4226.30302988,3288.7272724,4325.21212078,2810.66666639,5055.69696919,3239.27272695,4269.57575715,201.939393919,4428.2424238,4112.96969656,4264.93939351,1500.12121197,4829.03030255,1050.9090908,4483.87878743,3338.18181785,42.0,42.0,?
2017-08-01 19:26:59.847185,4562.18181773,4009.93939354,4320.57575714,1055.03030292,3928.03030264,4022.3030299,4055.27272687,288.484848456,4303.57575715,556.363636308,4468.93939349,729.454545382,4213.93939352,3288.7272724,4316.45454502,2810.66666639,5040.75757525,3239.27272695,4258.24242382,201.939393919,4417.9393935,4112.96969656,4259.78787836,1500.12121197,4819.24242376,1050.9090908,4477.69696925,3338.18181785,42.0,42.0,?
2017-08-01 19:26:59.858199,4557.03030257,4009.93939354,4317.48484805,1055.03030292,3923.90909052,4022.3030299,4053.21212081,288.484848456,4307.18181775,556.363636308,4470.48484804,729.454545382,4208.78787837,3288.7272724,4315.42424199,2810.66666639,5044.36363586,3239.27272695,4248.45454503,201.939393919,4412.27272683,4112.96969656,4257.21212079,1500.12121197,4818.72727225,1050.9090908,4470.99999955,3338.18181785,42.0,42.0,?
2017-08-01 19:26:59.862584,4561.1515147,4009.93939354,4319.54545411,1055.03030292,3921.84848446,4022.3030299,4053.72727232,288.484848456,4316.45454502,556.363636308,4478.21212076,729.454545382,4212.90909049,3288.7272724,4322.6363632,2810.66666639,5050.03030253,3239.27272695,4249.99999958,201.939393919,4416.90909047,4112.96969656,4259.78787836,1500.12121197,4825.93939346,1050.9090908,4471.51515107,3338.18181785,42.0,42.0,?
2017-08-01 19:26:59.871198,4556.51515106,4009.93939354,4317.99999957,1055.03030292,3923.393939,4022.3030299,4055.27272687,288.484848456,4313.87878745,556.363636308,4477.69696925,729.454545382,4217.03030261,3288.7272724,4326.75757532,2810.66666639,5046.42424192,3239.27272695,4259.78787836,201.939393919,4418.96969653,4112.96969656,4261.84848442,1500.12121197,4824.90909043,1050.9090908,4474.60606016,3338.18181785,42.0,42.0,?
2017-08-01 19:26:59.878075,4550.84848439,4009.93939354,4318.51515108,1055.03030292,3928.03030264,4022.3030299,4050.12121172,288.484848456,4295.84848442,556.363636308,4465.33333289,729.454545382,4217.54545412,3288.7272724,4323.15151472,2810.66666639,5048.9999995,3239.27272695,4259.78787836,201.939393919,4415.87878744,4112.96969656,4261.33333291,1500.12121197,4820.78787831,1050.9090908,4470.48484804,3338.18181785,42.0,42.0,?
2017-08-01 19:26:59.886139,4550.33333288,4009.93939354,4317.99999957,1055.03030292,3925.96969658,4022.3030299,4043.42424202,288.484848456,4284.51515109,556.363636308,4456.06060561,729.454545382,4210.84848443,3288.7272724,4313.36363593,2810.66666639,5048.9999995,3239.27272695,4245.36363594,201.939393919,4407.12121168,4112.96969656,4258.75757533,1500.12121197,4815.12121164,1050.9090908,4457.60606016,3338.18181785,42.0,42.0,?
2017-08-01 19:26:59.892737,4551.36363591,4009.93939354,4318.51515108,1055.03030292,3920.30302991,4022.3030299,4038.78787838,288.484848456,4288.63636321,556.363636308,4448.8484844,729.454545382,4196.93939352,3288.7272724,4300.48484805,2810.66666639,5036.63636313,3239.27272695,4238.66666624,201.939393919,4398.87878744,4112.96969656,4257.21212079,1500.12121197,4808.93939346,1050.9090908,4452.45454501,3338.18181785,42.0,42.0,?
2017-08-01 19:26:59.901622,4551.87878742,4009.93939354,4319.54545411,1055.03030292,3919.27272688,4022.3030299,4043.42424202,288.484848456,4291.7272723,556.363636308,4444.72727228,729.454545382,4190.75757534,3288.7272724,4297.39393896,2810.66666639,5031.48484798,3239.27272695,4241.24242382,201.939393919,4401.96969653,4112.96969656,4258.75757533,1500.12121197,4809.96969649,1050.9090908,4459.15151471,3338.18181785,42.0,42.0,?
2017-08-01 19:26:59.910730,4548.78787833,4009.93939354,4313.87878745,1055.03030292,3924.93939355,4022.3030299,4053.21212081,288.484848456,4287.60606018,556.363636308,4451.42424198,729.454545382,4197.45454503,3288.7272724,4305.12121169,2810.66666639,5037.66666616,3239.27272695,4243.81818139,201.939393919,4409.69696926,4112.96969656,4260.81818139,1500.12121197,4811.51515103,1050.9090908,4460.69696925,3338.18181785,42.0,42.0,?
2017-08-01 19:26:59.917738,4549.81818136,4009.93939354,4312.3333329,1055.03030292,3930.60606021,4022.3030299,4053.21212081,288.484848456,4287.09090866,556.363636308,4457.60606016,729.454545382,4201.57575716,3288.7272724,4310.78787836,2810.66666639,5038.18181768,3239.27272695,4246.39393897,201.939393919,4408.66666623,4112.96969656,4261.33333291,1500.12121197,4808.93939346,1050.9090908,4460.69696925,3338.18181785,42.0,42.0,?
2017-08-01 19:26:59.927414,4554.96969651,4009.93939354,4314.90909048,1055.03030292,3929.06060567,4022.3030299,4047.03030263,288.484848456,4289.15151472,556.363636308,4450.90909046,729.454545382,4202.09090867,3288.7272724,4309.75757533,2810.66666639,5041.78787828,3239.27272695,4252.57575715,201.939393919,4410.21212077,4112.96969656,4260.30302988,1500.12121197,4808.93939346,1050.9090908,4468.93939349,3338.18181785,42.0,42.0,?
2017-08-01 19:26:59.932208,4561.66666621,4009.93939354,4315.93939351,1055.03030292,3929.57575718,4022.3030299,4049.6060602,288.484848456,4291.21212078,556.363636308,4450.90909046,729.454545382,4209.8181814,3288.7272724,4312.84848442,2810.66666639,5051.57575707,3239.27272695,4258.75757533,201.939393919,4422.06060562,4112.96969656,4260.81818139,1500.12121197,4818.72727225,1050.9090908,4478.21212076,3338.18181785,42.0,42.0,?
2017-08-01 19:26:59.939573,4562.18181773,4009.93939354,4317.48484805,1055.03030292,3932.15151476,4022.3030299,4057.84848444,288.484848456,4289.15151472,556.363636308,4459.66666622,729.454545382,4219.09090867,3288.7272724,4318.51515108,2810.66666639,5053.12121162,3239.27272695,4257.21212079,201.939393919,4421.03030259,4112.96969656,4261.33333291,1500.12121197,4822.33333285,1050.9090908,4475.12121167,3338.18181785,42.0,42.0,?
2017-08-01 19:26:59.949842,4551.87878742,4009.93939354,4314.90909048,1055.03030292,3925.45454506,4022.3030299,4054.75757535,288.484848456,4289.15151472,556.363636308,4456.57575713,729.454545382,4216.51515109,3288.7272724,4317.48484805,2810.66666639,5046.93939343,3239.27272695,4247.424242,201.939393919,4409.69696926,4112.96969656,4259.27272685,1500.12121197,4814.09090861,1050.9090908,4464.30302986,3338.18181785,42.0,42.0,?
2017-08-01 19:26:59.955567,4555.48484803,4009.93939354,4314.39393896,1055.03030292,3924.93939355,4022.3030299,4044.45454505,288.484848456,4289.66666624,556.363636308,4452.96969652,729.454545382,4210.84848443,3288.7272724,4314.39393896,2810.66666639,5047.45454495,3239.27272695,4245.87878745,201.939393919,4411.75757532,4112.96969656,4259.78787836,1500.12121197,4818.21212073,1050.9090908,4466.87878743,3338.18181785,42.0,42.0,?
2017-08-01 19:26:59.963634,4562.69696924,4026.42424202,4319.0303026,1055.03030292,3936.27272688,4022.3030299,4042.9090905,288.484848456,4291.21212078,556.363636308,4457.60606016,729.454545382,4209.8181814,3288.7272724,4314.90909048,2810.66666639,5055.69696919,3239.27272695,4254.63636321,201.939393919,4418.45454501,4112.96969656,4262.87878745,1500.12121197,4825.42424194,1050.9090908,4476.66666622,3338.18181785,42.0,42.0,?
2017-08-01 19:26:59.972321,4555.99999954,4026.42424202,4320.57575714,1042.66666656,3933.18181779,4022.3030299,4048.06060566,288.484848456,4295.84848442,556.363636308,4453.48484804,729.454545382,4205.18181776,3288.7272724,4311.81818139,2810.66666639,5048.9999995,3239.27272695,4252.57575715,201.939393919,4410.21212077,4112.96969656,4262.36363594,1500.12121197,4818.72727225,1050.9090908,4472.5454541,3338.18181785,42.0,42.0,?
2017-08-01 19:26:59.978555,4550.33333288,4026.42424202,4316.96969654,1042.66666656,3920.30302991,4022.3030299,4049.6060602,288.484848456,4290.69696927,556.363636308,4445.2424238,729.454545382,4196.93939352,3288.7272724,4304.60606018,2810.66666639,5027.87878738,3239.27272695,4240.7272723,201.939393919,4401.96969653,4112.96969656,4259.78787836,1500.12121197,4812.03030255,1050.9090908,4461.72727228,3334.06060573,42.0,42.0,?
2017-08-01 19:26:59.986518,4551.36363591,4026.42424202,4314.39393896,1042.66666656,3922.87878749,4026.42424202,4045.48484808,288.484848456,4277.81818139,556.363636308,4447.30302986,729.454545382,4193.33333291,3288.7272724,4302.54545412,2810.66666639,5024.78787829,3239.27272695,4240.7272723,201.939393919,4405.57575714,4112.96969656,4258.75757533,1500.12121197,4809.45454497,1050.9090908,4460.69696925,3334.06060573,42.0,42.0,?
2017-08-01 19:26:59.995948,4556.51515106,4026.42424202,4316.96969654,1042.66666656,3927.51515112,4026.42424202,4044.96969657,288.484848456,4275.24242381,556.363636308,4449.87878743,729.454545382,4198.48484806,3288.7272724,4305.12121169,2810.66666639,5036.63636313,3239.27272695,4253.09090867,201.939393919,4408.15151471,4112.96969656,4257.7272723,1500.12121197,4809.96969649,1050.9090908,4465.8484844,3334.06060573,42.0,42.0,?
2017-08-01 19:27:00.003189,4559.09090864,4026.42424202,4317.48484805,1042.66666656,3925.45454506,4026.42424202,4044.96969657,288.484848456,4282.96969654,548.121212066,4447.30302986,729.454545382,4203.63636322,3288.7272724,4304.09090866,2810.66666639,5037.15151465,3239.27272695,4265.45454503,201.939393919,4409.18181774,4112.96969656,4256.18181776,1500.12121197,4811.51515103,1050.9090908,4466.36363592,3334.06060573,42.0,42.0,?
2017-08-01 19:27:00.010584,4559.60606015,4026.42424202,4314.90909048,1042.66666656,3920.81818143,4026.42424202,4044.45454505,288.484848456,4282.45454503,548.121212066,4450.39393895,737.696969623,4206.72727231,3288.7272724,4306.66666624,2810.66666639,5032.51515101,3239.27272695,4276.27272685,201.939393919,4416.90909047,4112.96969656,4257.21212079,1500.12121197,4813.06060558,1050.9090908,4465.8484844,3334.06060573,42.0,42.0,?
2017-08-01 19:27:00.019260,4562.18181773,4026.42424202,4316.45454502,1042.66666656,3919.27272688,4026.42424202,4044.45454505,288.484848456,4281.93939351,548.121212066,4458.63636319,737.696969623,4210.84848443,3292.84848452,4314.39393896,2810.66666639,5041.27272677,3239.27272695,4289.15151472,201.939393919,4427.21212077,4112.96969656,4261.33333291,1500.12121197,4816.66666619,1050.9090908,4472.03030258,3334.06060573,42.0,42.0,?
2017-08-01 19:27:00.025845,4563.21212076,4026.42424202,4316.45454502,1042.66666656,3921.33333294,4026.42424202,4045.48484808,288.484848456,4288.63636321,548.121212066,4459.66666622,737.696969623,4211.87878746,3292.84848452,4316.96969654,2806.54545426,5047.45454495,3239.27272695,4296.87878745,201.939393919,4430.81818138,4112.96969656,4260.30302988,1500.12121197,4814.60606012,1050.9090908,4477.18181773,3334.06060573,42.0,42.0,?
2017-08-01 19:27:00.033546,4563.72727227,4026.42424202,4313.36363593,1042.66666656,3912.57575718,4026.42424202,4045.48484808,288.484848456,4284.51515109,548.121212066,4455.5454541,737.696969623,4209.8181814,3292.84848452,4312.84848442,2806.54545426,5040.75757525,3235.15151483,4294.81818139,201.939393919,4425.66666622,4112.96969656,4256.69696927,1500.12121197,4810.484848,1050.9090908,4471.51515107,3334.06060573,42.0,42.0,?
2017-08-01 19:27:00.043881,4565.27272682,4026.42424202,4311.30302987,1042.66666656,3900.72727234,4026.42424202,4040.33333293,288.484848456,4279.36363594,548.121212066,4461.21212077,737.696969623,4211.36363594,3292.84848452,4314.39393896,2806.54545426,5037.15151465,3235.15151483,4291.7272723,197.818181798,4422.57575713,4112.96969656,4259.27272685,1500.12121197,4811.51515103,1050.9090908,4463.78787834,3334.06060573,42.0,42.0,?
2017-08-01 19:27:00.050338,4566.81818136,4026.42424202,4310.27272684,1042.66666656,3905.36363597,4026.42424202,4035.18181778,288.484848456,4283.48484806,548.121212066,4466.87878743,737.696969623,4217.03030261,3292.84848452,4317.99999957,2806.54545426,5039.72727222,3235.15151483,4293.27272684,197.818181798,4425.15151471,4117.09090868,4263.90909048,1500.12121197,4812.54545406,1050.9090908,4462.2424238,3334.06060573,42.0,42.0,?
2017-08-01 19:27:00.057959,4572.48484803,4026.42424202,4311.81818139,1042.66666656,3908.45454506,4026.42424202,4037.75757535,288.484848456,4284.51515109,548.121212066,4458.12121168,737.696969623,4218.06060564,3292.84848452,4318.51515108,2806.54545426,5043.84848434,3235.15151483,4296.87878745,197.818181798,4421.5454541,4117.09090868,4262.87878745,1508.36363621,4811.51515103,1050.9090908,4464.81818137,3334.06060573,42.0,42.0,?
2017-08-01 19:27:00.065618,4573.51515106,4026.42424202,4311.81818139,1042.66666656,3896.60606022,4026.42424202,4039.81818141,288.484848456,4282.45454503,548.121212066,4452.96969652,737.696969623,4211.36363594,3292.84848452,4320.57575714,2806.54545426,5047.96969646,3235.15151483,4300.48484805,197.818181798,4416.39393895,4117.09090868,4259.78787836,1508.36363621,4814.09090861,1038.54545444,4462.2424238,3334.06060573,42.0,42.0,?
2017-08-01 19:27:00.072983,4571.454545,4026.42424202,4311.30302987,1042.66666656,3888.87878749,4026.42424202,4036.21212081,288.484848456,4288.12121169,548.121212066,4459.15151471,737.696969623,4207.24242382,3292.84848452,4315.93939351,2806.54545426,5044.36363586,3235.15151483,4297.90909048,197.818181798,4416.39393895,4117.09090868,4262.87878745,1508.36363621,4815.63636315,1038.54545444,4455.03030258,3334.06060573,42.0,42.0,?
2017-08-01 19:27:00.082807,4572.99999954,4026.42424202,4310.78787836,1042.66666656,3892.4848481,4026.42424202,4034.15151475,288.484848456,4291.7272723,548.121212066,4458.63636319,737.696969623,4209.8181814,3292.84848452,4308.7272723,2806.54545426,5037.15151465,3235.15151483,4294.81818139,197.818181798,4415.87878744,4117.09090868,4265.96969654,1508.36363621,4813.57575709,1038.54545444,4452.45454501,3334.06060573,42.0,42.0,?
2017-08-01 19:27:00.090053,4572.48484803,4026.42424202,4306.66666624,1042.66666656,3894.03030264,4026.42424202,4037.75757535,288.484848456,4284.51515109,548.121212066,4457.60606016,737.696969623,4208.27272685,3292.84848452,4310.27272684,2806.54545426,5039.72727222,3235.15151483,4297.39393896,197.818181798,4415.87878744,4117.09090868,4264.93939351,1504.24242409,4813.57575709,1038.54545444,4454.51515107,3334.06060573,42.0,42.0,?
2017-08-01 19:27:00.098230,4574.54545409,4026.42424202,4306.15151472,1042.66666656,3889.393939,4026.42424202,4038.78787838,288.484848456,4280.39393897,548.121212066,4457.60606016,737.696969623,4200.54545413,3292.84848452,4311.30302987,2806.54545426,5044.87878737,3235.15151483,4294.81818139,197.818181798,4417.9393935,4117.09090868,4264.424242,1504.24242409,4816.66666619,1038.54545444,4448.33333289,3334.06060573,42.0,42.0,?
2017-08-01 19:27:00.104540,4572.99999954,4026.42424202,4305.63636321,1042.66666656,3886.30302991,4026.42424202,4035.69696929,288.484848456,4283.48484806,548.121212066,4452.45454501,737.696969623,4197.45454503,3292.84848452,4305.63636321,2806.54545426,5037.66666616,3235.15151483,4286.06060563,197.818181798,4416.90909047,4117.09090868,4263.90909048,1504.24242409,4813.06060558,1038.54545444,4439.06060562,3334.06060573,42.0,42.0,?
2017-08-01 19:27:00.112208,4569.90909045,4026.42424202,4306.15151472,1042.66666656,3885.27272688,4026.42424202,4032.09090869,288.484848456,4286.06060563,548.121212066,4454.51515107,737.696969623,4197.96969655,3292.84848452,4303.06060563,2806.54545426,5029.93939344,3235.15151483,4280.90909048,197.818181798,4411.75757532,4117.09090868,4261.33333291,1504.24242409,4812.03030255,1038.54545444,4436.48484804,3334.06060573,42.0,42.0,?
