Timestamp,F3 Value,F3 Quality,FC5 Value,FC5 Quality,F7 Value,F7 Quality,T7 Value,T7 Quality,P7 Value,P7 Quality,O1 Value,O1 Quality,O2 Value,O2 Quality,P8 Value,P8 Quality,T8 Value,T8 Quality,F8 Value,F8 Quality,AF4 Value,AF4 Quality,FC6 Value,FC6 Quality,F4 Value,F4 Quality,AF3 Value,AF3 Quality,X Value,Y Value,Z Value
2017-08-01 19:58:16.673090,4661.09090862,0,4249.99999958,0,3813.15151477,0,4056.81818141,0,4449.36363592,0,4607.51515105,0,4330.36363593,0,4481.81818137,0,5184.48484797,0,4358.69696926,0,4504.99999955,0,4356.12121169,0,4918.15151466,0,5764.54545397,0,42.0,42.0,?
2017-08-01 19:58:16.675015,4661.09090862,0,4249.99999958,0,3813.15151477,0,4056.81818141,0,4449.36363592,0,4607.51515105,0,4330.36363593,0,4481.81818137,0,5184.48484797,0,4358.69696926,0,4504.99999955,0,4356.12121169,0,4918.15151466,0,4146.45454504,0,42.0,42.0,?
2017-08-01 19:58:16.679537,4661.09090862,0,4260.30302988,0,3813.66666629,0,4016.12121172,0,4419.48484804,0,4582.27272681,0,4320.06060563,0,4484.39393895,0,5232.90909039,0,4351.99999956,0,4506.03030258,0,4356.6363632,0,4920.21212072,0,4162.42424201,0,42.0,42.0,?
2017-08-01 19:58:16.682888,4657.99999953,0,4253.60606018,0,3807.99999962,0,4020.24242384,0,4420.51515107,0,4582.78787833,0,4317.48484805,0,4489.03030258,0,5198.39393887,0,4345.30302987,0,4499.33333288,0,4365.90909047,0,4920.21212072,0,4144.39393898,0,42.0,42.0,?
2017-08-01 19:58:16.689325,4657.48484802,0,4247.424242,0,3809.03030265,0,4062.99999959,0,4461.72727228,0,4610.60606014,0,4332.42424199,0,4505.51515106,0,5186.54545403,0,4340.15151472,0,4496.24242379,0,4342.72727229,0,4922.7878783,0,4113.99999959,0,42.0,42.0,?
2017-08-01 19:58:16.691867,4655.42424196,0,4244.33333291,0,3807.4848481,0,4061.96969656,0,4462.2424238,0,4614.72727227,0,4345.30302987,0,4517.36363591,0,5204.06060554,0,4335.51515108,0,4487.48484804,0,4321.60606017,0,4906.81818133,0,4126.87878747,0,42.0,42.0,?
2017-08-01 19:58:16.695605,4649.24242378,0,4248.45454503,0,3804.39393901,0,4021.78787839,0,4409.69696926,0,4582.78787833,0,4325.21212078,0,4482.33333289,0,5174.18181766,0,4332.93939351,0,4484.39393895,0,4336.54545411,0,4895.99999951,0,4160.87878746,0,42.0,42.0,?
2017-08-01 19:58:16.698615,4658.51515105,0,4266.48484806,0,3815.21212083,0,4007.87878748,0,4401.96969653,0,4571.454545,0,4306.15151472,0,4443.18181774,0,5119.57575706,0,4348.39393896,0,4498.30302985,0,4375.69696926,0,4910.93939345,0,4169.1212117,0,42.0,42.0,?
2017-08-01 19:58:16.701668,4682.72727226,0,4271.63636321,0,3826.54545416,0,4036.21212081,0,4455.03030258,0,4600.81818136,0,4327.27272684,0,4461.72727228,0,5130.9090904,0,4366.9393935,0,4510.66666622,0,4408.15151471,0,4926.90909042,0,4162.93939352,0,42.0,42.0,?
2017-08-01 19:58:16.712173,4678.09090862,0,4248.45454503,0,3818.30302992,0,4065.06060565,0,4473.57575713,0,4619.3636359,0,4344.78787835,0,4491.60606016,0,5214.87878736,0,4353.54545411,0,4511.18181773,0,4383.9393935,0,4929.48484799,0,4162.42424201,0,42.0,42.0,?
2017-08-01 19:58:16.717376,4648.72727226,0,4233.51515109,0,3807.4848481,0,4056.3030299,0,4434.42424198,0,4601.84848439,0,4327.78787836,0,4490.06060561,0,5226.7272722,0,4319.0303026,0,4504.48484803,0,4327.27272684,0,4921.24242375,0,4145.93939352,0,42.0,42.0,?
2017-08-01 19:58:16.721718,4645.12121166,0,4243.30302988,0,3806.96969659,0,4025.90909051,0,4419.99999956,0,4589.48484803,0,4316.45454502,0,4485.93939349,0,5137.60606009,0,4313.87878745,0,4494.18181773,0,4325.21212078,0,4913.51515102,0,4111.93939353,0,42.0,42.0,?
2017-08-01 19:58:16.724959,4658.51515105,0,4247.424242,0,3805.42424204,0,4030.54545414,0,4447.30302986,0,4603.90909045,0,4333.96969654,0,4496.75757531,0,5138.12121161,0,4336.0303026,0,4484.39393895,0,4355.60606017,0,4908.87878739,0,4100.6060602,0,42.0,42.0,?
2017-08-01 19:58:16.728216,4659.03030256,0,4241.75757533,0,3803.8787875,0,4057.84848444,0,4456.57575713,0,4614.21212075,0,4343.75757532,0,4512.72727228,0,5218.99999948,0,4338.09090866,0,4487.48484804,0,4340.66666623,0,4912.99999951,0,4125.33333292,0,42.0,42.0,?
2017-08-01 19:58:16.736931,4659.54545408,0,4242.27272685,0,3803.8787875,0,4040.84848444,0,4428.75757531,0,4594.12121166,0,4319.0303026,0,4491.09090864,0,5178.30302979,0,4325.72727229,0,4498.30302985,0,4329.84848442,0,4921.75757527,0,4136.66666625,0,42.0,42.0,?
2017-08-01 19:58:16.742003,4667.78787832,0,4247.424242,0,3804.90909053,0,4001.6969693,0,4407.6363632,0,4570.93939348,0,4293.78787836,0,4437.51515107,0,5089.18181767,0,4340.15151472,0,4501.90909046,0,4379.81818138,0,4921.24242375,0,4123.78787838,0,42.0,42.0,?
2017-08-01 19:58:16.749502,4669.84848438,0,4248.45454503,0,3808.51515113,0,4011.9999996,0,4427.72727228,0,4578.15151469,0,4303.06060563,0,4448.33333289,0,5118.54545403,0,4358.18181775,0,4502.93939349,0,4408.66666623,0,4925.87878739,0,4136.66666625,0,42.0,42.0,?
2017-08-01 19:58:16.754691,4663.15151469,0,4242.27272685,0,3808.51515113,0,4037.75757535,0,4439.06060562,0,4591.03030257,0,4319.0303026,0,4498.30302985,0,5191.18181766,0,4338.09090866,0,4498.30302985,0,4358.18181775,0,4922.27272678,0,4164.99999958,0,42.0,42.0,?
2017-08-01 19:58:16.758044,4656.45454499,0,4238.66666624,0,3800.78787841,0,4015.6060602,0,4398.36363592,0,4572.99999954,0,4307.69696927,0,4480.78787834,0,5190.66666615,0,4308.7272723,0,4483.87878743,0,4314.90909048,0,4909.3939389,0,4156.24242383,0,42.0,42.0,?
2017-08-01 19:58:16.761373,4659.03030256,0,4247.424242,0,3800.78787841,0,3994.9999996,0,4378.78787835,0,4560.12121167,0,4299.96969654,0,4453.48484804,0,5162.33333282,0,4311.30302987,0,4485.93939349,0,4334.99999957,0,4915.57575708,0,4135.12121171,0,42.0,42.0,?
2017-08-01 19:58:16.764576,4670.87878741,0,4254.63636321,0,3814.1818178,0,4029.51515111,0,4431.33333289,0,4587.42424197,0,4316.96969654,0,4474.09090864,0,5139.15151464,0,4343.75757532,0,4504.48484803,0,4373.6363632,0,4927.93939345,0,4153.15151474,0,42.0,42.0,?
2017-08-01 19:58:16.768082,4680.15151468,0,4249.99999958,0,3826.03030265,0,4065.57575717,0,4478.72727228,0,4617.81818136,0,4333.96969654,0,4493.1515147,0,5152.03030252,0,4365.90909047,0,4517.87878743,0,4381.36363593,0,4938.24242375,0,4164.99999958,0,42.0,42.0,?
2017-08-01 19:58:16.775926,4681.69696923,0,4254.63636321,0,3824.99999962,0,4055.27272687,0,4470.48484804,0,4614.21212075,0,4334.99999957,0,4494.69696925,0,5196.33333281,0,4357.66666623,0,4518.90909046,0,4364.36363593,0,4943.3939389,0,4147.99999959,0,42.0,42.0,?
2017-08-01 19:58:16.785083,4676.54545408,0,4255.15151473,0,3817.27272689,0,4030.54545414,0,4424.63636319,0,4595.15151469,0,4327.27272684,0,4482.8484844,0,5149.96969645,0,4336.54545411,0,4506.54545409,0,4361.78787835,0,4933.60606011,0,4145.42424201,0,42.0,42.0,?
2017-08-01 19:58:16.800050,4692.51515105,0,4255.15151473,0,3817.27272689,0,4028.9999996,0,4464.81818137,0,4596.69696924,0,4335.51515108,0,4485.93939349,0,5149.96969645,0,4336.54545411,0,4499.33333288,0,4361.78787835,0,4934.63636314,0,4140.27272686,0,42.0,42.0,?
2017-08-01 19:58:16.800897,4692.51515105,0,4261.84848442,0,3827.57575719,0,4049.6060602,0,4464.81818137,0,4620.39393893,0,4361.27272684,0,4524.06060561,0,5189.1212116,0,4347.36363593,0,4511.69696925,0,4369.51515108,0,4946.99999951,0,4144.39393898,0,42.0,42.0,?
2017-08-01 19:58:16.807226,4675.51515105,0,4247.424242,0,3816.75757538,0,4045.48484808,0,4425.66666622,0,4596.69696924,0,4333.45454502,0,4478.72727228,0,5184.99999948,0,4338.60606017,0,4518.39393894,0,4350.96969653,0,4940.30302981,0,4186.1212117,0,42.0,42.0,?
2017-08-01 19:58:16.814708,4675.51515105,0,4247.424242,0,3816.75757538,0,4045.48484808,0,4425.66666622,0,4596.69696924,0,4333.45454502,0,4478.72727228,0,5184.99999948,0,4338.60606017,0,4518.39393894,0,4350.96969653,0,4940.30302981,0,4186.1212117,0,42.0,42.0,?
2017-08-01 19:58:16.823474,4674.48484802,0,4242.78787836,0,3811.60606022,0,4039.81818141,0,4416.39393895,0,4593.09090863,0,4322.6363632,0,4472.03030258,0,5153.57575706,0,4344.78787835,0,4515.30302985,0,4363.3333329,0,4945.45454496,0,4158.8181814,0,42.0,42.0,?
2017-08-01 19:58:16.834787,4689.42424196,0,4259.27272685,0,3824.4848481,0,4030.03030263,0,4447.30302986,0,4602.3636359,0,4338.60606017,0,4479.24242379,0,5140.18181767,0,4364.87878744,0,4525.09090864,0,4394.2424238,0,4957.81818132,0,4171.69696928,0,42.0,42.0,?
2017-08-01 19:58:16.841968,4677.57575711,0,4255.15151473,0,3824.99999962,0,4024.87878748,0,4430.30302986,0,4593.60606015,0,4339.6363632,0,4470.99999955,0,5165.93939342,0,4342.72727229,0,4518.90909046,0,4368.99999956,0,4948.54545405,0,4192.30302988,0,42.0,42.0,?
2017-08-01 19:58:16.846217,4665.21212075,0,4239.69696927,0,3816.75757538,0,4035.69696929,0,4410.72727229,0,4589.99999954,0,4333.45454502,0,4485.42424198,0,5198.90909039,0,4316.96969654,0,4504.48484803,0,4337.06060563,0,4936.6969692,0,4170.66666625,0,42.0,42.0,?
2017-08-01 19:58:16.853821,4681.18181771,0,4249.48484806,0,3825.51515113,0,4051.15151475,0,4451.93939349,0,4607.51515105,0,4345.30302987,0,4504.48484803,0,5175.21212069,0,4355.60606017,0,4516.33333288,0,4381.36363593,0,4950.60606011,0,4169.63636322,0,42.0,42.0,?
2017-08-01 19:58:16.862130,4684.2727268,0,4260.81818139,0,3832.72727234,0,4048.57575717,0,4473.06060561,0,4613.18181772,0,4350.96969653,0,4503.96969652,0,5162.84848433,0,4375.18181774,0,4526.63636318,0,4395.78787835,0,4953.6969692,0,4183.03030261,0,42.0,42.0,?
2017-08-01 19:58:16.869757,4672.93939347,3589.57575722,4255.66666624,0,3824.99999962,0,4033.63636323,0,4444.21212077,0,4598.7575753,0,4337.57575714,0,4499.33333288,0,5202.51515099,0,4337.06060563,0,4523.03030258,0,4339.6363632,0,4948.54545405,0,4159.84848443,0,42.0,42.0,?
2017-08-01 19:58:16.879845,4676.03030256,3589.57575722,4246.39393897,2349.09090886,3823.45454507,0,4032.6060602,0,4434.42424198,0,4596.18181772,0,4331.90909048,0,4496.24242379,0,5208.69696918,0,4337.57575714,0,4525.60606015,0,4344.27272684,0,4955.24242375,0,4152.12121171,0,42.0,42.0,?
2017-08-01 19:58:16.884849,4673.9696965,3589.57575722,4240.7272723,2349.09090886,3828.60606022,0,4042.39393899,0,4440.09090865,0,4600.81818136,0,4332.42424199,0,4486.45454501,0,5161.8181813,0,4360.24242381,0,4524.06060561,0,4395.27272683,0,4957.81818132,0,4178.39393898,4133.57575716,42.0,42.0,?
2017-08-01 19:58:16.892828,4662.12121166,3589.57575722,4239.18181776,2349.09090886,3826.54545416,2167.75757554,4045.9999996,0,4430.81818138,0,4600.30302984,0,4327.27272684,0,4477.69696925,0,5142.75757524,0,4343.24242381,0,4510.1515147,0,4379.30302987,0,4948.54545405,0,4188.69696928,4133.57575716,42.0,42.0,?
2017-08-01 19:58:16.901268,4665.72727226,3589.57575722,4245.36363594,2349.09090886,3826.54545416,2167.75757554,4051.66666626,350.303030268,4442.15151471,0,4608.03030257,0,4335.51515108,0,4483.36363592,0,5178.30302979,0,4340.15151472,0,4509.12121167,0,4351.48484805,0,4944.93939344,0,4183.03030261,4133.57575716,42.0,42.0,?
2017-08-01 19:58:16.908659,4679.12121165,3589.57575722,4254.63636321,2349.09090886,3837.36363598,2167.75757554,4061.45454505,350.303030268,4466.87878743,251.393939369,4618.33333287,0,4342.72727229,0,4498.30302985,0,5188.09090857,0,4362.81818138,0,4528.18181773,0,4369.51515108,0,4960.90909041,0,4181.99999958,4133.57575716,42.0,42.0,?
2017-08-01 19:58:16.918635,4678.60606014,3589.57575722,4244.84848442,2349.09090886,3845.09090871,2167.75757554,4053.21212081,350.303030268,4456.57575713,251.393939369,4613.69696924,247.272727248,4331.39393896,0,4504.99999955,0,5160.78787827,0,4358.18181775,0,4531.27272682,0,4365.39393896,0,4964.51515102,0,4187.66666625,4133.57575716,42.0,42.0,?
2017-08-01 19:58:16.923757,4663.6666662,3589.57575722,4231.96969655,2349.09090886,3836.84848446,2167.75757554,4037.75757535,350.303030268,4422.06060562,251.393939369,4597.21212075,247.272727248,4322.6363632,3165.09090877,4492.63636319,0,5172.63636312,0,4340.66666623,0,4519.93939349,0,4332.93939351,0,4953.6969692,0,4177.87878746,4133.57575716,42.0,42.0,?
2017-08-01 19:58:16.931578,4659.03030256,3589.57575722,4245.36363594,2349.09090886,3827.57575719,2167.75757554,4023.84848445,350.303030268,4400.9393935,251.393939369,4579.69696924,247.272727248,4312.84848442,3165.09090877,4457.60606016,2860.12121184,5155.63636312,0,4338.09090866,0,4522.51515106,0,4342.21212078,0,4957.81818132,0,4140.78787837,4133.57575716,42.0,42.0,?
2017-08-01 19:58:16.940446,4672.42424196,3589.57575722,4256.18181776,2349.09090886,3836.33333295,2167.75757554,4026.42424202,350.303030268,4422.06060562,251.393939369,4583.30302984,247.272727248,4315.93939351,3165.09090877,4455.03030258,2860.12121184,5118.03030252,3004.36363606,4344.78787835,0,4529.72727227,0,4375.69696926,0,4960.90909041,0,4135.12121171,4133.57575716,42.0,42.0,?
2017-08-01 19:58:16.947704,4682.21212074,3589.57575722,4244.84848442,2349.09090886,3844.57575719,2167.75757554,4060.93939353,350.303030268,4461.72727228,251.393939369,4614.21212075,247.272727248,4348.90909047,3165.09090877,4512.21212076,2860.12121184,5183.45454494,3004.36363606,4348.90909047,4191.27272685,4529.21212076,0,4360.75757532,0,4963.48484799,0,4186.63636322,4133.57575716,42.0,42.0,?
2017-08-01 19:58:16.958042,4674.48484802,3589.57575722,4238.15151473,2349.09090886,3837.87878749,2167.75757554,4071.24242384,350.303030268,4454.51515107,251.393939369,4618.33333287,247.272727248,4355.60606017,3165.09090877,4508.60606016,2860.12121184,5223.1212116,3004.36363606,4353.54545411,4191.27272685,4526.63636318,2559.27272702,4351.48484805,0,4969.15151465,0,4214.96969655,4133.57575716,42.0,42.0,?
2017-08-01 19:58:16.967792,4663.6666662,3589.57575722,4232.48484806,2349.09090886,3858.4848481,2167.75757554,4049.09090869,350.303030268,4435.45454501,251.393939369,4594.63636318,247.272727248,4323.15151472,3165.09090877,4449.36363592,2860.12121184,5102.06060555,3004.36363606,4370.54545411,4191.27272685,4534.87878743,2559.27272702,4385.48484805,3474.18181783,4969.66666617,0,4202.09090867,4133.57575716,42.0,42.0,?
2017-08-01 19:58:16.972015,4663.6666662,3589.57575722,4232.48484806,2349.09090886,3858.4848481,2167.75757554,4049.09090869,350.303030268,4435.45454501,251.393939369,4594.12121166,247.272727248,4314.90909048,3165.09090877,4449.36363592,2860.12121184,5102.06060555,3004.36363606,4370.54545411,4191.27272685,4534.87878743,2559.27272702,4385.48484805,3474.18181783,4969.15151465,1178.66666655,4195.90909049,4133.57575716,42.0,42.0,?
2017-08-01 19:58:16.980384,4663.6666662,3589.57575722,4240.7272723,2349.09090886,3865.1818178,2167.75757554,4061.45454505,350.303030268,4458.12121168,251.393939369,4607.51515105,247.272727248,4329.3333329,3165.09090877,4491.60606016,2860.12121184,5139.66666615,3004.36363606,4333.45454502,4187.15151473,4524.57575712,2559.27272702,4345.30302987,3474.18181783,4959.87878738,1178.66666655,4196.424242,4133.57575716,42.0,42.0,?
2017-08-01 19:58:16.991959,4663.15151469,3589.57575722,4249.48484806,2349.09090886,3851.7878784,2167.75757554,4054.75757535,350.303030268,4446.27272683,251.393939369,4603.39393893,247.272727248,4328.30302987,3165.09090877,4482.33333289,2860.12121184,5176.75757524,3004.36363606,4317.99999957,4187.15151473,4512.21212076,2555.1515149,4325.72727229,3474.18181783,4954.21212072,1178.66666655,4185.09090867,4133.57575716,42.0,42.0,?
2017-08-01 19:58:16.998140,4656.45454499,3589.57575722,4232.48484806,2349.09090886,3841.99999962,2167.75757554,4042.9090905,350.303030268,4427.72727228,251.393939369,4595.15151469,247.272727248,4323.66666623,3165.09090877,4463.27272683,2860.12121184,5163.87878736,3004.36363606,4340.15151472,4187.15151473,4512.21212076,2555.1515149,4339.12121169,3474.18181783,4956.78787829,1178.66666655,4160.36363595,4133.57575716,42.0,42.0,?
2017-08-01 19:58:17.003557,4656.45454499,3589.57575722,4227.33333291,2349.09090886,3843.03030265,2167.75757554,4047.54545414,350.303030268,4429.78787834,251.393939369,4598.7575753,247.272727248,4327.78787836,3165.09090877,4470.48484804,2860.12121184,5145.84848433,3004.36363606,4350.96969653,4187.15151473,4524.57575712,2555.1515149,4345.30302987,3474.18181783,4958.84848435,1178.66666655,4153.15151474,4133.57575716,42.0,42.0,?
2017-08-01 19:58:17.010898,4663.6666662,3589.57575722,4239.69696927,2349.09090886,3848.69696931,2167.75757554,4049.6060602,350.303030268,4437.51515107,251.393939369,4599.27272681,247.272727248,4330.36363593,3165.09090877,4476.66666622,2860.12121184,5155.63636312,3004.36363606,4336.54545411,4187.15151473,4534.87878743,2555.1515149,4331.39393896,3474.18181783,4965.54545405,1178.66666655,4177.36363595,4133.57575716,42.0,42.0,?
2017-08-01 19:58:17.018021,4656.9696965,3589.57575722,4235.57575715,2349.09090886,3851.27272689,2167.75757554,4042.9090905,350.303030268,4422.57575713,251.393939369,4589.99999954,247.272727248,4324.18181775,3165.09090877,4462.75757531,2860.12121184,5149.45454494,3004.36363606,4312.3333329,4187.15151473,4518.90909046,2555.1515149,4320.06060563,3474.18181783,4962.45454496,1178.66666655,4185.60606019,4133.57575716,42.0,42.0,?
2017-08-01 19:58:17.027372,4650.27272681,3589.57575722,4227.84848443,2349.09090886,3847.66666628,2167.75757554,4038.78787838,350.303030268,4398.87878744,251.393939369,4585.36363591,247.272727248,4314.39393896,3165.09090877,4436.99999956,2860.12121184,5103.6060601,3004.36363606,4318.51515108,4187.15151473,4511.69696925,2555.1515149,4342.21212078,3474.18181783,4969.66666617,1178.66666655,4170.15151473,4133.57575716,42.0,42.0,?
2017-08-01 19:58:17.033648,4665.21212075,3589.57575722,4240.7272723,2349.09090886,3850.75757537,2167.75757554,4037.75757535,350.303030268,4403.51515107,251.393939369,4591.03030257,247.272727248,4313.87878745,3165.09090877,4430.81818138,2860.12121184,5093.81818131,3004.36363606,4355.09090866,4187.15151473,4536.42424197,2555.1515149,4377.75757532,3474.18181783,4990.78787829,1178.66666655,4167.06060564,4133.57575716,42.0,42.0,?
2017-08-01 19:58:17.042156,4671.39393893,3589.57575722,4242.78787836,2349.09090886,3853.84848446,2167.75757554,4039.81818141,350.303030268,4431.84848441,251.393939369,4594.12121166,247.272727248,4319.0303026,3165.09090877,4456.57575713,2860.12121184,5137.09090858,3004.36363606,4357.66666623,4187.15151473,4537.96969652,2555.1515149,4357.66666623,3474.18181783,4982.54545405,1178.66666655,4172.72727231,4133.57575716,42.0,42.0,?
2017-08-01 19:58:17.050313,4667.78787832,3589.57575722,4233.51515109,2349.09090886,3854.87878749,2167.75757554,4062.99999959,350.303030268,4455.03030258,251.393939369,4603.90909045,247.272727248,4323.66666623,3165.09090877,4468.93939349,2860.12121184,5150.99999948,3004.36363606,4344.27272684,4187.15151473,4532.81818136,2555.1515149,4342.72727229,3474.18181783,4979.45454496,1178.66666655,4190.75757534,4133.57575716,42.0,42.0,?
2017-08-01 19:58:17.057697,4690.9696965,3589.57575722,4247.424242,2349.09090886,3866.72727234,2167.75757554,4093.39393898,350.303030268,4472.03030258,251.393939369,4631.72727226,247.272727248,4344.78787835,3165.09090877,4479.75757531,2860.12121184,5178.30302979,3004.36363606,4372.60606017,4187.15151473,4562.69696924,2555.1515149,4384.96969653,3474.18181783,5007.78787829,1178.66666655,4227.84848443,4133.57575716,42.0,42.0,?
2017-08-01 19:58:17.065775,4709.51515104,3589.57575722,4255.66666624,2349.09090886,3875.99999961,2167.75757554,4093.9090905,350.303030268,4479.75757531,251.393939369,4643.57575711,247.272727248,4366.42424199,3165.09090877,4511.18181773,2860.12121184,5215.90909039,3004.36363606,4398.87878744,4187.15151473,4572.99999954,2555.1515149,4398.87878744,3474.18181783,5012.42424192,1178.66666655,4241.75757533,4133.57575716,42.0,42.0,?
2017-08-01 19:58:17.072830,4690.9696965,3589.57575722,4242.27272685,2349.09090886,3861.57575719,2167.75757554,4078.45454505,350.303030268,4461.72727228,251.393939369,4626.0606056,247.272727248,4351.99999956,3165.09090877,4512.72727228,2860.12121184,5180.36363585,3004.36363606,4372.60606017,4187.15151473,4544.66666621,2555.1515149,4356.6363632,3474.18181783,4984.60606011,1178.66666655,4219.60606018,4133.57575716,42.0,42.0,?
2017-08-01 19:58:17.082501,4674.48484802,3589.57575722,4231.45454503,2349.09090886,3844.57575719,2167.75757554,4058.87878747,350.303030268,4439.06060562,251.393939369,4608.03030257,247.272727248,4325.72727229,3165.09090877,4475.63636319,2860.12121184,5121.63636312,3004.36363606,4347.36363593,4187.15151473,4530.7575753,2555.1515149,4342.21212078,3474.18181783,4967.09090859,1178.66666655,4196.424242,4133.57575716,42.0,42.0,?
2017-08-01 19:58:17.093951,4678.60606014,3589.57575722,4233.51515109,2349.09090886,3847.15151477,2167.75757554,4051.15151475,350.303030268,4435.96969653,251.393939369,4608.54545408,247.272727248,4332.42424199,3165.09090877,4458.12121168,2860.12121184,5140.69696918,3004.36363606,4355.60606017,4187.15151473,4534.36363591,2555.1515149,4364.36363593,3474.18181783,4968.63636314,1178.66666655,4189.72727231,4133.57575716,42.0,42.0,?
2017-08-01 19:58:17.099068,4679.12121165,3589.57575722,4237.63636321,2349.09090886,3851.7878784,2167.75757554,4064.54545414,350.303030268,4429.27272683,251.393939369,4613.18181772,247.272727248,4349.9393935,3165.09090877,4472.03030258,2860.12121184,5168.515151,3004.36363606,4363.3333329,4187.15151473,4528.18181773,2555.1515149,4366.42424199,3474.18181783,4963.48484799,1178.66666655,4205.18181776,4133.57575716,42.0,42.0,?
2017-08-01 19:58:17.108433,4682.21212074,3589.57575722,4244.33333291,2349.09090886,3862.60606022,2167.75757554,4066.6060602,350.303030268,4428.75757531,251.393939369,4613.69696924,247.272727248,4347.87878744,3165.09090877,4475.63636319,2860.12121184,5121.63636312,3004.36363606,4362.81818138,4187.15151473,4529.21212076,2555.1515149,4378.27272683,3474.18181783,4958.84848435,1178.66666655,4227.33333291,4133.57575716,42.0,42.0,?
2017-08-01 19:58:17.113631,4696.12121165,3589.57575722,4252.57575715,2349.09090886,3871.87878749,2167.75757554,4062.99999959,350.303030268,4464.81818137,251.393939369,4622.45454499,247.272727248,4348.90909047,3165.09090877,4489.03030258,2860.12121184,5148.93939342,3004.36363606,4370.03030259,4187.15151473,4540.54545409,2555.1515149,4383.9393935,3474.18181783,4967.60606011,1178.66666655,4226.30302988,4133.57575716,42.0,42.0,?
2017-08-01 19:58:17.120030,4698.69696923,3589.57575722,4246.39393897,2349.09090886,3861.57575719,2167.75757554,4087.72727232,350.303030268,4490.06060561,251.393939369,4639.45454499,247.272727248,4363.3333329,3165.09090877,4520.454545,2860.12121184,5241.66666614,3004.36363606,4392.69696926,4187.15151473,4536.93939349,2555.1515149,4360.75757532,3474.18181783,4962.96969647,1178.66666655,4217.03030261,4133.57575716,42.0,42.0,?
2017-08-01 19:58:17.127754,4684.78787832,3589.57575722,4232.48484806,2349.09090886,3853.33333295,2167.75757554,4098.54545414,350.303030268,4463.78787834,251.393939369,4640.48484802,247.272727248,4363.84848441,3165.09090877,4509.12121167,2860.12121184,5207.15151463,3004.36363606,4398.36363592,4187.15151473,4529.72727227,2555.1515149,4371.57575714,3474.18181783,4954.21212072,1178.66666655,4225.78787837,4133.57575716,42.0,42.0,?
2017-08-01 19:58:17.137820,4672.93939347,3589.57575722,4229.39393897,2349.09090886,3855.39393901,2167.75757554,4064.54545414,350.303030268,4426.18181774,251.393939369,4619.87878742,247.272727248,4345.81818138,3165.09090877,4476.66666622,2860.12121184,5137.60606009,3004.36363606,4359.72727229,4187.15151473,4526.12121167,2555.1515149,4369.51515108,3474.18181783,4954.72727223,1178.66666655,4228.36363594,4133.57575716,42.0,42.0,?
2017-08-01 19:58:17.142615,4683.24242377,3589.57575722,4244.33333291,2349.09090886,3854.87878749,2167.75757554,4040.84848444,350.303030268,4418.45454501,251.393939369,4605.45454499,247.272727248,4336.0303026,3165.09090877,4462.75757531,2860.12121184,5123.18181767,3004.36363606,4345.81818138,4187.15151473,4532.81818136,2555.1515149,4344.27272684,3474.18181783,4962.96969647,1178.66666655,4201.06060564,4133.57575716,42.0,42.0,?
2017-08-01 19:58:17.150618,4704.36363589,3589.57575722,4255.15151473,2349.09090886,3858.99999961,2167.75757554,4064.54545414,350.303030268,4447.30302986,251.393939369,4621.42424196,247.272727248,4350.45454502,3165.09090877,4461.21212077,2860.12121184,5119.57575706,3004.36363606,4383.42424199,4187.15151473,4550.84848439,2555.1515149,4375.18181774,3474.18181783,4976.87878738,1178.66666655,4196.424242,4133.57575716,42.0,42.0,?
2017-08-01 19:58:17.159232,4706.42424195,3589.57575722,4242.78787836,2349.09090886,3870.84848446,2167.75757554,4097.51515111,350.303030268,4485.42424198,251.393939369,4646.6666662,247.272727248,4368.99999956,3165.09090877,4477.69696925,2860.12121184,5176.24242372,3004.36363606,4405.57575714,4187.15151473,4553.93939348,2555.1515149,4412.78787835,3474.18181783,4974.30302981,1178.66666655,4242.27272685,4133.57575716,42.0,42.0,?
2017-08-01 19:58:17.166787,4700.75757529,3589.57575722,4234.03030261,2349.09090886,3872.90909052,2167.75757554,4102.66666626,350.303030268,4489.03030258,251.393939369,4648.72727226,247.272727248,4368.99999956,3165.09090877,4507.57575713,2860.12121184,5240.63636311,3004.36363606,4389.09090865,4187.15151473,4544.1515147,2555.1515149,4388.57575714,3474.18181783,4967.60606011,1178.66666655,4259.27272685,4133.57575716,42.0,42.0,?
2017-08-01 19:58:17.177888,4706.42424195,3589.57575722,4240.7272723,2349.09090886,3870.33333295,2167.75757554,4077.93939353,350.303030268,4457.60606016,251.393939369,4628.63636317,247.272727248,4356.6363632,3165.09090877,4509.12121167,2860.12121184,5184.48484797,3004.36363606,4379.30302987,4187.15151473,4541.57575712,2555.1515149,4365.39393896,3474.18181783,4967.60606011,1178.66666655,4219.09090867,4133.57575716,42.0,42.0,?
2017-08-01 19:58:17.185345,4708.99999953,3589.57575722,4242.78787836,2349.09090886,3867.75757537,2167.75757554,4054.75757535,350.303030268,4445.2424238,251.393939369,4615.24242378,247.272727248,4353.54545411,3165.09090877,4498.81818137,2860.12121184,5142.24242373,3004.36363606,4376.21212077,4187.15151473,4528.18181773,2555.1515149,4359.21212078,3474.18181783,4948.03030254,1178.66666655,4196.424242,4133.57575716,42.0,42.0,?
2017-08-01 19:58:17.190264,4690.45454499,3589.57575722,4229.90909049,2349.09090886,3853.33333295,2167.75757554,4060.42424202,350.303030268,4455.03030258,251.393939369,4617.30302984,247.272727248,4354.57575714,3165.09090877,4497.27272682,2860.12121184,5179.84848433,3004.36363606,4364.87878744,4187.15151473,4505.51515106,2555.1515149,4342.21212078,3474.18181783,4923.81818133,1178.66666655,4214.45454503,4133.57575716,42.0,42.0,?
2017-08-01 19:58:17.199817,4670.3636359,3589.57575722,4219.09090867,2349.09090886,3840.96969659,2167.75757554,4068.15151474,350.303030268,4446.27272683,251.393939369,4619.87878742,247.272727248,4344.78787835,3165.09090877,4474.09090864,2860.12121184,5149.96969645,3004.36363606,4365.39393896,4187.15151473,4503.96969652,2555.1515149,4358.18181775,3474.18181783,4920.72727224,1178.66666655,4234.54545412,4133.57575716,42.0,42.0,?
2017-08-01 19:58:17.206272,4674.48484802,3589.57575722,4225.27272685,2349.09090886,3847.15151477,2167.75757554,4045.9999996,350.303030268,4426.69696925,251.393939369,4608.03030257,247.272727248,4337.57575714,3165.09090877,4456.06060561,2860.12121184,5122.66666615,3004.36363606,4369.51515108,4187.15151473,4516.33333288,2555.1515149,4369.51515108,3474.18181783,4933.0909086,1178.66666655,4238.15151473,4133.57575716,42.0,42.0,?
2017-08-01 19:58:17.213578,4689.42424196,3589.57575722,4236.09090867,2349.09090886,3855.90909052,2167.75757554,4024.87878748,350.303030268,4426.18181774,251.393939369,4596.18181772,247.272727248,4340.15151472,3165.09090877,4461.72727228,2860.12121184,5161.30302979,3004.36363606,4372.09090865,4187.15151473,4520.96969652,2555.1515149,4343.75757532,3474.18181783,4942.36363587,1178.66666655,4224.24242382,4133.57575716,42.0,42.0,?
2017-08-01 19:58:17.223605,4700.75757529,3589.57575722,4239.18181776,2349.09090886,3861.06060567,2167.75757554,4057.84848444,350.303030268,4447.81818137,251.393939369,4614.21212075,247.272727248,4353.54545411,3165.09090877,4479.24242379,2860.12121184,5176.75757524,3004.36363606,4376.72727229,4187.15151473,4526.63636318,2555.1515149,4354.06060563,3474.18181783,4950.60606011,1178.66666655,4233.51515109,4133.57575716,42.0,42.0,?
2017-08-01 19:58:17.229152,4712.60606013,3589.57575722,4244.84848442,2349.09090886,3870.84848446,2167.75757554,4107.81818141,350.303030268,4466.87878743,251.393939369,4650.27272681,247.272727248,4378.27272683,3165.09090877,4513.24242379,2860.12121184,5192.72727221,3004.36363606,4373.12121168,4187.15151473,4538.48484803,2555.1515149,4382.39393896,3474.18181783,4964.51515102,1178.66666655,4268.0303026,4133.57575716,42.0,42.0,?
2017-08-01 19:58:17.236628,4723.93939347,3589.57575722,4253.60606018,2349.09090886,3876.51515113,2167.75757554,4101.12121171,350.303030268,4482.8484844,251.393939369,4657.48484802,247.272727248,4397.33333289,3165.09090877,4534.36363591,2860.12121184,5206.1212116,3004.36363606,4391.66666623,4187.15151473,4550.33333288,2555.1515149,4402.48484804,3474.18181783,4973.27272678,1178.66666655,4279.36363594,4133.57575716,42.0,42.0,?
2017-08-01 19:58:17.246029,4726.51515104,3589.57575722,4251.54545412,2349.09090886,3872.39393901,2167.75757554,4059.39393899,350.303030268,4481.30302985,251.393939369,4632.75757529,247.272727248,4390.12121168,3165.09090877,4508.09090864,2860.12121184,5164.39393888,3004.36363606,4427.72727228,4187.15151473,4556.51515106,2555.1515149,4434.42424198,3474.18181783,4975.33333284,1178.66666655,4269.06060563,4133.57575716,42.0,42.0,?
2017-08-01 19:58:17.252691,4722.90909044,3589.57575722,4240.7272723,2349.09090886,3868.7878784,2167.75757554,4058.87878747,350.303030268,4462.2424238,251.393939369,4621.42424196,247.272727248,4374.15151471,3165.09090877,4477.18181773,2860.12121184,5146.36363585,3004.36363606,4418.45454501,4187.15151473,4548.27272682,2555.1515149,4419.48484804,3474.18181783,4969.66666617,1178.66666655,4261.33333291,4133.57575716,42.0,42.0,?
2017-08-01 19:58:17.260592,4719.30302983,3589.57575722,4232.48484806,2349.09090886,3869.81818143,2167.75757554,4090.81818141,350.303030268,4473.57575713,251.393939369,4640.48484802,247.272727248,4380.3333329,3165.09090877,4495.72727228,2860.12121184,5204.57575706,3004.36363606,4377.2424238,4187.15151473,4536.93939349,2555.1515149,4364.36363593,3474.18181783,4958.33333284,1178.66666655,4257.21212079,4133.57575716,42.0,42.0,?
2017-08-01 19:58:17.270263,4707.9696965,3589.57575722,4228.87878746,2349.09090886,3863.63636325,2167.75757554,4086.18181777,350.303030268,4484.90909046,251.393939369,4643.57575711,247.272727248,4390.6363632,3165.09090877,4514.27272682,2860.12121184,5218.48484796,3004.36363606,4367.96969653,4187.15151473,4541.06060561,2555.1515149,4360.24242381,3474.18181783,4963.9999995,1178.66666655,4248.96969654,4133.57575716,42.0,42.0,?
2017-08-01 19:58:17.276432,4698.18181771,3589.57575722,4232.48484806,2349.09090886,3856.42424204,2167.75757554,4062.48484808,350.303030268,4448.33333289,251.393939369,4626.57575711,247.272727248,4384.96969653,3165.09090877,4495.21212076,2860.12121184,5172.63636312,3004.36363606,4391.66666623,4187.15151473,4545.18181773,2555.1515149,4389.09090865,3474.18181783,4968.63636314,1178.66666655,4242.27272685,4133.57575716,42.0,42.0,?
2017-08-01 19:58:17.285100,4729.09090862,3589.57575722,4259.27272685,2349.09090886,3873.93939355,2167.75757554,4077.93939353,350.303030268,4442.66666622,251.393939369,4642.03030257,247.272727248,4394.2424238,3165.09090877,4501.39393894,2860.12121184,5181.90909039,3004.36363606,4425.66666622,4187.15151473,4560.63636318,2555.1515149,4410.72727229,3474.18181783,4979.96969647,1178.66666655,4277.81818139,4133.57575716,42.0,42.0,?
2017-08-01 19:58:17.292355,4788.84848437,3589.57575722,4297.39393896,2349.09090886,3911.03030264,2167.75757554,4120.69696928,350.303030268,4514.78787834,251.393939369,4690.45454499,247.272727248,4436.48484804,3165.09090877,4561.1515147,2860.12121184,5243.21212069,3004.36363606,4458.63636319,4187.15151473,4599.27272681,2555.1515149,4450.90909046,3474.18181783,5019.63636313,1178.66666655,4351.48484805,4133.57575716,42.0,42.0,?
2017-08-01 19:58:17.300255,4812.03030255,3589.57575722,4302.0303026,2349.09090886,3925.45454506,2167.75757554,4159.33333292,350.303030268,4570.93939348,251.393939369,4724.45454498,247.272727248,4475.63636319,3165.09090877,4600.81818136,2860.12121184,5273.60606008,3004.36363606,4479.24242379,4187.15151473,4618.33333287,2555.1515149,4483.87878743,3474.18181783,5039.72727222,1178.66666655,4375.69696926,4133.57575716,42.0,42.0,?
2017-08-01 19:58:17.307877,4795.54545407,3589.57575722,4281.93939351,2349.09090886,3915.66666628,2167.75757554,4174.78787837,350.303030268,4567.84848439,251.393939369,4731.66666619,247.272727248,4483.87878743,3165.09090877,4594.12121166,2860.12121184,5278.24242371,3004.36363606,4489.03030258,4187.15151473,4614.21212075,2555.1515149,4473.06060561,3474.18181783,5031.9999995,1178.66666655,4342.21212078,4133.57575716,42.0,42.0,?
2017-08-01 19:58:17.315292,4789.8787874,3589.57575722,4275.75757533,2349.09090886,3912.57575718,2167.75757554,4164.48484807,350.303030268,4568.36363591,251.393939369,4729.60606013,247.272727248,4476.66666622,3165.09090877,4600.30302984,2860.12121184,5305.54545401,3004.36363606,4477.69696925,4187.15151473,4614.72727227,2555.1515149,4457.60606016,3474.18181783,5028.39393889,1178.66666655,4329.84848442,4133.57575716,42.0,42.0,?
2017-08-01 19:58:17.329397,4767.21212074,3589.57575722,4261.84848442,2349.09090886,3897.12121173,2167.75757554,4119.15151474,350.303030268,4520.96969652,251.393939369,4686.33333286,247.272727248,4438.5454541,3165.09090877,4585.87878742,2860.12121184,5261.24242372,3004.36363606,4457.60606016,4187.15151473,4589.48484803,2555.1515149,4448.33333289,3474.18181783,5011.39393889,1178.66666655,4307.18181775,4133.57575716,42.0,42.0,?
2017-08-01 19:58:17.333854,4749.69696922,3589.57575722,4254.1212117,2349.09090886,3888.36363597,2167.75757554,4099.57575717,350.303030268,4484.90909046,251.393939369,4668.81818135,247.272727248,4424.12121168,3165.09090877,4544.66666621,2860.12121184,5203.54545403,3004.36363606,4464.30302986,4187.15151473,4573.51515106,2555.1515149,4452.96969652,3474.18181783,4994.90909041,1178.66666655,4295.3333329,4133.57575716,42.0,42.0,?
2017-08-01 19:58:17.343212,4749.69696922,3589.57575722,4254.1212117,2349.09090886,3888.36363597,2167.75757554,4099.57575717,350.303030268,4484.90909046,251.393939369,4668.81818135,247.272727248,4424.12121168,3165.09090877,4544.66666621,2860.12121184,5203.54545403,3004.36363606,4464.30302986,4187.15151473,4573.51515106,2555.1515149,4452.96969652,3474.18181783,4994.90909041,1178.66666655,4295.3333329,4133.57575716,42.0,42.0,?
2017-08-01 19:58:17.348378,4746.60606013,3589.57575722,4241.24242382,2349.09090886,3877.03030264,2167.75757554,4115.54545413,350.303030268,4498.81818137,251.393939369,4671.90909044,247.272727248,4421.5454541,3165.09090877,4528.69696924,2860.12121184,5226.7272722,3004.36363606,4427.72727228,4187.15151473,4580.21212075,2555.1515149,4439.06060562,3474.18181783,5004.18181768,1178.66666655,4291.21212078,4133.57575716,42.0,42.0,?
2017-08-01 19:58:17.357610,4746.60606013,3589.57575722,4241.24242382,2349.09090886,3877.03030264,2167.75757554,4115.54545413,350.303030268,4498.81818137,251.393939369,4671.90909044,247.272727248,4421.5454541,3165.09090877,4528.69696924,2860.12121184,5226.7272722,3004.36363606,4427.72727228,4187.15151473,4580.21212075,2555.1515149,4439.06060562,3474.18181783,5004.18181768,1178.66666655,4291.21212078,4133.57575716,42.0,42.0,?
2017-08-01 19:58:17.362866,4746.09090862,3589.57575722,4245.87878745,2349.09090886,3875.99999961,2167.75757554,4092.87878747,350.303030268,4481.81818137,251.393939369,4657.48484802,247.272727248,4406.60606017,3165.09090877,4542.60606015,2860.12121184,5252.48484796,3004.36363606,4430.81818138,4187.15151473,4577.63636318,2555.1515149,4399.90909047,3474.18181783,5003.66666617,1178.66666655,4277.81818139,4133.57575716,42.0,42.0,?
2017-08-01 19:58:17.369773,4762.5757571,3577.21212085,4261.84848442,2349.09090886,3887.33333294,2167.75757554,4077.93939353,350.303030268,4485.42424198,251.393939369,4656.9696965,247.272727248,4408.15151471,3165.09090877,4550.84848439,2860.12121184,5255.57575705,3004.36363606,4463.27272683,4187.15151473,4593.60606015,2555.1515149,4438.03030259,3474.18181783,5016.03030253,1178.66666655,4290.69696927,4133.57575716,42.0,42.0,?
2017-08-01 19:58:17.379541,4766.18181771,3577.21212085,4261.33333291,2353.21212098,3882.69696931,2167.75757554,4088.75757535,350.303030268,4498.81818137,251.393939369,4662.63636317,247.272727248,4410.21212077,3165.09090877,4534.87878743,2860.12121184,5207.66666615,3004.36363606,4453.99999955,4187.15151473,4606.48484802,2555.1515149,4490.06060561,3474.18181783,5026.33333283,1178.66666655,4287.60606018,4133.57575716,42.0,42.0,?
2017-08-01 19:58:17.386458,4745.5757571,3577.21212085,4245.87878745,2353.21212098,3870.33333295,2167.75757554,4113.48484807,350.303030268,4509.12121167,251.393939369,4673.9696965,247.272727248,4412.27272683,3165.09090877,4531.27272682,2860.12121184,5185.515151,3004.36363606,4417.42424198,4187.15151473,4586.90909045,2555.1515149,4452.96969652,3474.18181783,5009.84848435,1178.66666655,4269.57575715,4125.33333292,42.0,42.0,?
2017-08-01 19:58:17.394128,4732.18181771,3577.21212085,4243.30302988,2353.21212098,3873.93939355,2167.75757554,4126.87878747,350.303030268,4523.54545409,251.393939369,4688.90909044,247.272727248,4427.21212077,3165.09090877,4560.63636318,2860.12121184,5241.15151463,3004.36363606,4418.96969653,4187.15151473,4572.48484803,2555.1515149,4397.84848441,3474.18181783,4999.03030253,1178.66666655,4282.96969654,4125.33333292,42.0,42.0,?
2017-08-01 19:58:17.401743,4733.21212074,3577.21212085,4253.09090867,2353.21212098,3881.15151476,2167.75757554,4104.2121208,354.424242389,4510.1515147,251.393939369,4680.6666662,247.272727248,4430.81818138,3165.09090877,4580.21212075,2860.12121184,5278.24242371,3004.36363606,4428.75757531,4187.15151473,4581.7575753,2555.1515149,4392.18181774,3474.18181783,5002.63636314,1178.66666655,4276.78787836,4125.33333292,42.0,42.0,?
2017-08-01 19:58:17.409603,4735.78787831,3577.21212085,4260.30302988,2353.21212098,3880.12121173,2167.75757554,4088.75757535,354.424242389,4486.45454501,197.818181798,4665.21212075,247.272727248,4418.96969653,3165.09090877,4568.87878742,2860.12121184,5250.4242419,3004.36363606,4414.33333289,4187.15151473,4587.42424197,2555.1515149,4406.09090865,3474.18181783,5008.81818132,1178.66666655,4239.18181776,4125.33333292,42.0,42.0,?
2017-08-01 19:58:17.421015,4739.90909044,3577.21212085,4265.96969654,2353.21212098,3881.15151476,2167.75757554,4107.81818141,354.424242389,4501.39393894,197.818181798,4677.06060559,193.696969678,4422.06060562,3165.09090877,4554.454545,2860.12121184,5227.24242372,3004.36363606,4430.30302986,4187.15151473,4585.87878742,2555.1515149,4443.69696925,3474.18181783,5012.42424192,1178.66666655,4260.81818139,4125.33333292,42.0,42.0,?
2017-08-01 19:58:17.424747,4749.69696922,3577.21212085,4277.30302988,2353.21212098,3892.99999961,2167.75757554,4118.12121171,354.424242389,4530.24242379,197.818181798,4694.57575711,193.696969678,4435.45454501,3136.24242393,4549.81818136,2860.12121184,5216.4242419,3004.36363606,4475.12121167,4187.15151473,4597.21212075,2555.1515149,4500.87878743,3474.18181783,5023.75757526,1178.66666655,4321.60606017,4125.33333292,42.0,42.0,?
2017-08-01 19:58:17.432749,4766.18181771,3577.21212085,4286.06060563,2353.21212098,3906.393939,2167.75757554,4126.36363595,354.424242389,4545.18181773,197.818181798,4704.87878741,193.696969678,4452.45454501,3136.24242393,4566.30302985,2839.51515123,5224.66666614,3004.36363606,4485.93939349,4187.15151473,4615.7575753,2555.1515149,4500.87878743,3474.18181783,5040.24242374,1178.66666655,4331.90909048,4125.33333292,42.0,42.0,?
2017-08-01 19:58:17.441854,4776.99999952,3577.21212085,4277.30302988,2353.21212098,3907.42424203,2167.75757554,4150.06060565,354.424242389,4542.60606015,197.818181798,4715.69696923,193.696969678,4466.87878743,3136.24242393,4598.24242378,2839.51515123,5270.51515099,2991.9999997,4461.72727228,4187.15151473,4617.30302984,2555.1515149,4459.15151471,3474.18181783,5037.15151465,1178.66666655,4315.42424199,4125.33333292,42.0,42.0,?
2017-08-01 19:58:17.448466,4794.51515104,3577.21212085,4281.93939351,2353.21212098,3914.12121173,2167.75757554,4162.42424201,354.424242389,4550.84848439,197.818181798,4729.09090862,193.696969678,4476.1515147,3136.24242393,4618.84848439,2839.51515123,5301.93939341,2991.9999997,4453.48484804,4187.15151473,4622.96969651,2555.1515149,4475.63636319,3474.18181783,5041.78787828,1178.66666655,4330.87878745,4125.33333292,42.0,42.0,?
2017-08-01 19:58:17.457997,4825.42424194,3577.21212085,4314.39393896,2353.21212098,3938.33333294,2167.75757554,4177.36363595,354.424242389,4597.72727227,197.818181798,4755.36363589,193.696969678,4499.33333288,3136.24242393,4636.87878742,2839.51515123,5308.63636311,2991.9999997,4487.99999955,4187.15151473,4651.81818135,2485.09090884,4525.09090864,3474.18181783,5064.96969646,1178.66666655,4361.27272684,4125.33333292,42.0,42.0,?
2017-08-01 19:58:17.464175,4844.99999952,3577.21212085,4328.30302987,2353.21212098,3950.6969693,2167.75757554,4208.78787837,354.424242389,4623.99999954,197.818181798,4780.60606013,193.696969678,4528.18181773,3136.24242393,4657.99999953,2839.51515123,5331.30302977,2991.9999997,4527.1515147,4187.15151473,4668.30302984,2485.09090884,4531.78787833,3461.81818147,5076.81818131,1178.66666655,4365.90909047,4125.33333292,42.0,42.0,?
2017-08-01 19:58:17.473228,4848.60606012,3577.21212085,4313.87878745,2353.21212098,3946.06060567,2167.75757554,4212.39393897,354.424242389,4603.39393893,197.818181798,4777.51515104,193.696969678,4526.63636318,3136.24242393,4663.6666662,2839.51515123,5360.66666613,2991.9999997,4528.18181773,4187.15151473,4657.99999953,2485.09090884,4522.51515106,3461.81818147,5073.2121207,1162.18181807,4349.9393935,4125.33333292,42.0,42.0,?
2017-08-01 19:58:17.480789,4844.99999952,3577.21212085,4302.54545412,2353.21212098,3939.36363597,2167.75757554,4183.54545413,354.424242389,4597.21212075,197.818181798,4758.45454498,193.696969678,4506.54545409,3136.24242393,4652.33333287,2839.51515123,5347.27272674,2991.9999997,4515.30302985,4191.27272685,4646.6666662,2485.09090884,4540.03030258,3461.81818147,5067.03030252,1162.18181807,4348.39393896,4125.33333292,42.0,42.0,?
2017-08-01 19:58:17.488201,4830.06060558,3577.21212085,4297.90909048,2353.21212098,3929.57575718,2167.75757554,4171.18181776,354.424242389,4594.63636318,197.818181798,4750.21212074,193.696969678,4490.57575713,3136.24242393,4617.30302984,2839.51515123,5294.21212068,2991.9999997,4510.1515147,4191.27272685,4645.12121166,2476.8484846,4544.66666621,3461.81818147,5064.45454495,1162.18181807,4355.60606017,4125.33333292,42.0,42.0,?
2017-08-01 19:58:17.495454,4820.78787831,3577.21212085,4294.30302987,2353.21212098,3924.93939355,2167.75757554,4178.90909049,354.424242389,4565.78787833,197.818181798,4748.66666619,193.696969678,4476.1515147,3136.24242393,4585.87878742,2839.51515123,5281.33333281,2991.9999997,4501.90909046,4191.27272685,4647.18181772,2476.8484846,4525.60606015,3470.06060571,5064.45454495,1162.18181807,4347.36363593,4125.33333292,42.0,42.0,?
2017-08-01 19:58:17.503355,4833.66666618,3577.21212085,4301.51515109,2353.21212098,3937.30302991,2167.75757554,4176.33333292,354.424242389,4574.54545409,197.818181798,4752.78787831,193.696969678,4485.42424198,3136.24242393,4620.39393893,2839.51515123,5327.69696916,2991.9999997,4503.96969652,4191.27272685,4655.93939347,2476.8484846,4524.57575712,3470.06060571,5073.72727222,1162.18181807,4357.15151472,4125.33333292,42.0,42.0,?
2017-08-01 19:58:17.511627,4846.54545406,3577.21212085,4312.3333329,2353.21212098,3949.15151476,2167.75757554,4185.09090867,354.424242389,4620.90909045,197.818181798,4772.36363589,193.696969678,4516.33333288,3136.24242393,4667.27272681,2839.51515123,5318.93939341,2991.9999997,4524.57575712,4191.27272685,4674.48484802,2476.8484846,4557.54545409,3470.06060571,5094.84848434,1162.18181807,4378.78787835,4125.33333292,42.0,42.0,?
2017-08-01 19:58:17.519584,4844.99999952,3577.21212085,4310.27272684,2353.21212098,3943.48484809,2167.75757554,4212.39393897,354.424242389,4625.54545408,197.818181798,4787.81818134,193.696969678,4521.99999955,3136.24242393,4650.27272681,2839.51515123,5268.45454493,2991.9999997,4526.12121167,4191.27272685,4676.54545408,2476.8484846,4576.09090863,3470.06060571,5099.99999949,1162.18181807,4360.24242381,4125.33333292,42.0,42.0,?
2017-08-01 19:58:17.528880,4846.54545406,3577.21212085,4307.69696927,2353.21212098,3943.99999961,2167.75757554,4207.24242382,354.424242389,4596.18181772,197.818181798,4776.99999952,193.696969678,4503.454545,3136.24242393,4640.99999954,2839.51515123,5306.57575705,2991.9999997,4501.90909046,4191.27272685,4662.12121166,2476.8484846,4529.72727227,3470.06060571,5088.15151464,1162.18181807,4332.93939351,4125.33333292,42.0,42.0,?
2017-08-01 19:58:17.534629,4857.87878739,3577.21212085,4320.06060563,2353.21212098,3956.36363597,2167.75757554,4173.75757534,354.424242389,4591.03030257,197.818181798,4758.96969649,193.696969678,4501.39393894,3136.24242393,4673.9696965,2839.51515123,5377.15151461,2991.9999997,4498.30302985,4191.27272685,4666.75757529,2476.8484846,4494.18181773,3470.06060571,5090.2121207,1162.18181807,4351.99999956,4125.33333292,42.0,42.0,?
2017-08-01 19:58:17.545094,4872.30302982,3577.21212085,4327.27272684,2353.21212098,3957.90909051,2167.75757554,4195.90909049,354.424242389,4623.48484802,197.818181798,4776.48484801,193.696969678,4520.96969652,3136.24242393,4688.39393893,2839.51515123,5382.30302976,2991.9999997,4531.78787833,4191.27272685,4687.87878741,2476.8484846,4536.93939349,3470.06060571,5109.78787828,1162.18181807,4384.45454502,4125.33333292,42.0,42.0,?
2017-08-01 19:58:17.550964,4874.87878739,3577.21212085,4314.39393896,2353.21212098,3954.30302991,2167.75757554,4244.84848442,354.424242389,4646.6666662,197.818181798,4806.8787874,193.696969678,4532.30302985,3136.24242393,4679.12121165,2839.51515123,5373.54545401,2991.9999997,4551.36363591,4191.27272685,4700.24242377,2476.8484846,4574.03030257,3470.06060571,5126.27272676,1162.18181807,4388.57575714,4125.33333292,42.0,42.0,?
2017-08-01 19:58:17.562254,4860.96969648,3577.21212085,4301.51515109,2353.21212098,3952.75757536,2167.75757554,4240.21212079,354.424242389,4634.30302984,197.818181798,4803.27272679,193.696969678,4521.99999955,3136.24242393,4663.15151469,2839.51515123,5367.36363583,2991.9999997,4531.27272682,4191.27272685,4689.42424196,2476.8484846,4554.454545,3470.06060571,5116.48484797,1162.18181807,4376.21212077,4125.33333292,42.0,42.0,?
2017-08-01 19:58:17.566696,4854.27272679,3577.21212085,4299.45454502,2353.21212098,3947.60606021,2167.75757554,4204.15151473,354.424242389,4609.57575711,197.818181798,4778.03030255,193.696969678,4503.454545,3136.24242393,4635.84848438,2839.51515123,5321.51515098,2991.9999997,4518.90909046,4191.27272685,4676.03030256,2476.8484846,4562.18181773,3470.06060571,5103.09090858,1162.18181807,4349.42424199,4125.33333292,42.0,42.0,?
2017-08-01 19:58:17.575874,4861.484848,3577.21212085,4299.96969654,2353.21212098,3938.84848445,2167.75757554,4162.93939352,354.424242389,4575.0606056,197.818181798,4748.66666619,193.696969678,4482.8484844,3136.24242393,4608.54545408,2839.51515123,5269.99999947,2991.9999997,4517.36363591,4191.27272685,4672.42424196,2476.8484846,4580.72727227,3470.06060571,5105.15151464,1162.18181807,4317.48484805,4125.33333292,42.0,42.0,?
2017-08-01 19:58:17.590419,4860.45454497,3577.21212085,4300.48484805,2353.21212098,3932.66666627,2167.75757554,4146.45454504,354.424242389,4563.21212076,197.818181798,4732.18181771,193.696969678,4461.72727228,3136.24242393,4600.30302984,2839.51515123,5267.93939341,2991.9999997,4502.93939349,4191.27272685,4667.78787832,2476.8484846,4547.7575753,3470.06060571,5105.15151464,1162.18181807,4324.69696926,4125.33333292,42.0,42.0,?
2017-08-01 19:58:17.594633,4846.54545406,3577.21212085,4294.81818139,2353.21212098,3929.57575718,2167.75757554,4168.09090867,354.424242389,4570.93939348,197.818181798,4739.39393892,193.696969678,4451.93939349,3136.24242393,4610.60606014,2839.51515123,5289.57575705,2991.9999997,4482.8484844,4191.27272685,4664.69696923,2476.8484846,4510.1515147,3470.06060571,5108.75757525,1162.18181807,4345.30302987,4125.33333292,42.0,42.0,?
2017-08-01 19:58:17.605467,4842.93939346,3577.21212085,4290.18181775,2353.21212098,3932.15151476,2167.75757554,4182.5151511,354.424242389,4569.39393894,197.818181798,4752.78787831,193.696969678,4465.8484844,3136.24242393,4631.21212075,2839.51515123,5303.48484795,2991.9999997,4479.24242379,4191.27272685,4674.99999953,2476.8484846,4523.54545409,3470.06060571,5120.60606009,1162.18181807,4340.66666623,4125.33333292,42.0,42.0,?
2017-08-01 19:58:17.609680,4853.75757527,3577.21212085,4295.84848442,2353.21212098,3939.36363597,2167.75757554,4183.54545413,354.424242389,4592.0606056,197.818181798,4769.78787831,193.696969678,4501.90909046,3136.24242393,4661.09090862,2839.51515123,5328.72727219,2991.9999997,4497.27272682,4191.27272685,4700.24242377,2476.8484846,4555.48484803,3470.06060571,5141.72727221,1162.18181807,4344.27272684,4125.33333292,42.0,42.0,?
2017-08-01 19:58:17.614036,4858.39393891,3577.21212085,4300.99999957,2353.21212098,3941.93939355,2167.75757554,4206.21212079,354.424242389,4640.99999954,197.818181798,4793.48484801,193.696969678,4532.30302985,3136.24242393,4674.48484802,2839.51515123,5360.15151462,2991.9999997,4523.54545409,4191.27272685,4710.54545407,2476.8484846,4557.54545409,3470.06060571,5150.99999948,1162.18181807,4355.09090866,4125.33333292,42.0,42.0,?
2017-08-01 19:58:17.624469,4849.12121164,3577.21212085,4298.42424199,2353.21212098,3934.21212082,2167.75757554,4209.8181814,354.424242389,4628.12121166,197.818181798,4790.39393891,193.696969678,4529.72727227,3136.24242393,4650.27272681,2839.51515123,5341.09090856,2991.9999997,4524.57575712,4191.27272685,4685.30302983,2476.8484846,4546.72727227,3470.06060571,5127.30302979,1162.18181807,4333.96969654,4125.33333292,42.0,42.0,?
2017-08-01 19:58:17.627838,4834.69696921,3577.21212085,4289.66666624,2353.21212098,3916.18181779,2167.75757554,4168.09090867,354.424242389,4564.24242379,197.818181798,4752.78787831,193.696969678,4499.8484844,3136.24242393,4619.3636359,2839.51515123,5290.60606008,2991.9999997,4480.78787834,4191.27272685,4661.09090862,2476.8484846,4518.39393894,3470.06060571,5105.15151464,1162.18181807,4296.36363593,4125.33333292,42.0,42.0,?
2017-08-01 19:58:17.635634,4818.72727225,3577.21212085,4274.21212078,2353.21212098,3902.27272688,2167.75757554,4155.2121208,354.424242389,4549.30302985,197.818181798,4733.72727225,193.696969678,4471.51515107,3136.24242393,4611.12121166,2839.51515123,5285.45454493,2991.9999997,4453.99999955,4191.27272685,4660.57575711,2476.8484846,4490.06060561,3470.06060571,5101.03030252,1162.18181807,4288.12121169,4125.33333292,42.0,42.0,?
2017-08-01 19:58:17.644474,4813.06060558,3577.21212085,4272.15151472,2353.21212098,3908.96969658,2167.75757554,4164.48484807,354.424242389,4560.12121167,197.818181798,4736.30302983,193.696969678,4462.2424238,3136.24242393,4608.03030257,2839.51515123,5305.54545401,2991.9999997,4461.72727228,4191.27272685,4665.21212075,2476.8484846,4492.63636319,3470.06060571,5100.51515101,1162.18181807,4307.18181775,4125.33333292,42.0,42.0,?
2017-08-01 19:58:17.652403,4827.99999952,3577.21212085,4293.27272684,2353.21212098,3922.36363597,2167.75757554,4144.39393898,354.424242389,4556.51515106,197.818181798,4731.66666619,193.696969678,4467.90909046,3136.24242393,4597.21212075,2839.51515123,5276.69696917,2991.9999997,4476.66666622,4191.27272685,4674.48484802,2476.8484846,4525.09090864,3470.06060571,5110.81818131,1162.18181807,4321.60606017,4125.33333292,42.0,42.0,?
2017-08-01 19:58:17.668254,4835.21212073,3577.21212085,4295.84848442,2353.21212098,3919.27272688,2167.75757554,4139.24242383,354.424242389,4558.57575712,197.818181798,4729.60606013,193.696969678,4475.63636319,3136.24242393,4589.48484803,2839.51515123,5240.63636311,2991.9999997,4491.09090864,4191.27272685,4680.6666662,2476.8484846,4545.18181773,3470.06060571,5112.87878737,1162.18181807,4316.96969654,4125.33333292,42.0,42.0,?
2017-08-01 19:58:17.672917,4844.99999952,3577.21212085,4295.84848442,2353.21212098,3931.12121173,2167.75757554,4186.1212117,354.424242389,4585.36363591,197.818181798,4755.8787874,193.696969678,4497.27272682,3136.24242393,4606.99999954,2839.51515123,5259.18181766,2991.9999997,4510.66666622,4191.27272685,4688.90909044,2476.8484846,4561.1515147,3470.06060571,5115.45454494,1162.18181807,4337.57575714,4125.33333292,42.0,42.0,?
2017-08-01 19:58:17.681790,4902.18181769,3577.21212085,4335.51515108,2353.21212098,3973.36363597,2167.75757554,4243.81818139,354.424242389,4644.09090863,197.818181798,4815.12121164,193.696969678,4555.99999954,3136.24242393,4678.60606014,2839.51515123,5347.78787825,2991.9999997,4547.24242379,4191.27272685,4721.36363589,2476.8484846,4601.84848439,3470.06060571,5146.36363585,1162.18181807,4396.81818138,4125.33333292,42.0,42.0,?
2017-08-01 19:58:17.685802,4952.66666617,3577.21212085,4366.9393935,2353.21212098,3997.06060566,2167.75757554,4265.45454503,354.424242389,4685.81818135,197.818181798,4850.66666618,193.696969678,4605.96969651,3136.24242393,4740.42424195,2839.51515123,5440.51515097,2991.9999997,4581.24242378,4191.27272685,4749.69696922,2476.8484846,4613.69696924,3470.06060571,5175.21212069,1162.18181807,4431.84848441,4125.33333292,42.0,42.0,?
2017-08-01 19:58:17.691138,4949.57575708,3577.21212085,4357.66666623,2353.21212098,3990.36363596,2167.75757554,4270.09090866,354.424242389,4690.9696965,197.818181798,4848.60606012,193.696969678,4606.48484802,3136.24242393,4725.99999953,2839.51515123,5435.36363582,2991.9999997,4605.45454499,4191.27272685,4760.51515104,2476.8484846,4621.42424196,3470.06060571,5184.99999948,1162.18181807,4429.78787834,4125.33333292,42.0,42.0,?
2017-08-01 19:58:17.701645,4940.81818132,3577.21212085,4343.24242381,2353.21212098,3988.81818142,2167.75757554,4280.90909048,354.424242389,4687.36363589,197.818181798,4852.21212073,193.696969678,4599.27272681,3136.24242393,4710.54545407,2839.51515123,5399.81818128,2991.9999997,4618.33333287,4191.27272685,4763.60606013,2476.8484846,4657.48484802,3470.06060571,5184.48484797,1162.18181807,4414.84848441,4125.33333292,42.0,42.0,?
2017-08-01 19:58:17.707647,4949.57575708,3577.21212085,4343.75757532,2353.21212098,3996.03030263,2167.75757554,4273.18181775,354.424242389,4677.06060559,197.818181798,4855.30302982,193.696969678,4605.45454499,3136.24242393,4740.42424195,2839.51515123,5429.69696915,2991.9999997,4609.0606056,4191.27272685,4753.30302983,2476.8484846,4643.0606056,3470.06060571,5180.36363585,1162.18181807,4410.72727229,4125.33333292,42.0,42.0,?
2017-08-01 19:58:17.713686,4952.66666617,3577.21212085,4351.48484805,2353.21212098,3998.60606021,2167.75757554,4256.69696927,354.424242389,4672.42424196,197.818181798,4850.66666618,193.696969678,4618.33333287,3136.24242393,4767.21212074,2839.51515123,5461.63636309,2991.9999997,4586.90909045,4191.27272685,4743.51515104,2476.8484846,4593.09090863,3470.06060571,5174.69696918,1162.18181807,4438.03030259,4125.33333292,42.0,42.0,?
2017-08-01 19:58:17.723390,4952.15151466,3577.21212085,4354.57575714,2353.21212098,3999.63636324,2167.75757554,4264.424242,354.424242389,4683.75757529,197.818181798,4857.87878739,193.696969678,4634.30302984,3136.24242393,4762.5757571,2839.51515123,5442.06060552,2991.9999997,4589.99999954,4191.27272685,4752.78787831,2476.8484846,4606.48484802,3470.06060571,5171.09090857,1162.18181807,4455.03030258,4125.33333292,42.0,42.0,?
2017-08-01 19:58:17.729619,4946.99999951,3577.21212085,4342.21212078,2353.21212098,3996.03030263,2167.75757554,4266.48484806,354.424242389,4676.03030256,197.818181798,4851.1818177,193.696969678,4622.96969651,3136.24242393,4722.90909044,2839.51515123,5369.42424189,2991.9999997,4617.30302984,4191.27272685,4757.42424195,2476.8484846,4666.75757529,3470.06060571,5169.54545403,1162.18181807,4431.33333289,4125.33333292,42.0,42.0,?
2017-08-01 19:58:17.738112,4948.54545405,3577.21212085,4332.93939351,2353.21212098,3998.09090869,2167.75757554,4266.48484806,354.424242389,4673.9696965,197.818181798,4841.90909042,193.696969678,4600.30302984,3136.24242393,4692.51515105,2839.51515123,5332.3333328,2991.9999997,4629.6666662,4191.27272685,4748.66666619,2476.8484846,4686.33333286,3470.06060571,5163.87878736,1162.18181807,4427.21212077,4125.33333292,42.0,42.0,?
2017-08-01 19:58:17.754370,4972.75757526,3577.21212085,4350.45454502,2353.21212098,4016.12121172,2167.75757554,4291.7272723,354.424242389,4713.12121165,197.818181798,4869.72727224,193.696969678,4620.90909045,3136.24242393,4736.30302983,2839.51515123,5414.75757522,2991.9999997,4631.21212075,4191.27272685,4759.99999952,2476.8484846,4669.84848438,3470.06060571,5173.15151463,1162.18181807,4459.66666622,4125.33333292,42.0,42.0,?
2017-08-01 19:58:17.762304,4976.87878738,3577.21212085,4357.15151472,2353.21212098,4019.21212081,2167.75757554,4292.75757533,354.424242389,4716.21212074,197.818181798,4878.484848,193.696969678,4642.03030257,3136.24242393,4785.24242376,2839.51515123,5495.63636309,2991.9999997,4627.09090863,4191.27272685,4762.5757571,2476.8484846,4639.96969651,3470.06060571,5179.84848433,1162.18181807,4457.09090865,4125.33333292,42.0,42.0,?
2017-08-01 19:58:17.770289,4955.75757526,3577.21212085,4337.06060563,2353.21212098,3999.63636324,2167.75757554,4260.81818139,354.424242389,4670.87878741,197.818181798,4844.99999952,193.696969678,4620.90909045,3136.24242393,4750.72727225,2839.51515123,5450.81818127,2991.9999997,4615.7575753,4191.27272685,4745.5757571,2476.8484846,4619.87878742,3470.06060571,5165.93939342,1162.18181807,4433.39393895,4125.33333292,42.0,42.0,?
2017-08-01 19:58:17.772049,4958.84848435,3577.21212085,4332.42424199,2353.21212098,3997.57575718,2167.75757554,4255.66666624,354.424242389,4664.18181772,197.818181798,4835.72727224,193.696969678,4603.90909045,3136.24242393,4714.15151468,2839.51515123,5393.6363631,2991.9999997,4610.09090863,4191.27272685,4749.69696922,2476.8484846,4629.6666662,3470.06060571,5167.99999948,1162.18181807,4425.15151471,4125.33333292,42.0,42.0,?
2017-08-01 19:58:17.781566,4978.42424193,3577.21212085,4349.9393935,2353.21212098,4017.15151475,2167.75757554,4283.48484806,354.424242389,4705.90909044,197.818181798,4862.51515103,193.696969678,4621.42424196,3136.24242393,4746.60606013,2839.51515123,5422.99999946,2991.9999997,4626.0606056,4191.27272685,4769.78787831,2476.8484846,4646.15151469,3470.06060571,5186.03030251,1162.18181807,4441.12121168,4125.33333292,42.0,42.0,?
2017-08-01 19:58:17.793026,4965.03030253,3577.21212085,4347.36363593,2353.21212098,4014.57575717,2167.75757554,4281.424242,354.424242389,4635.84848438,197.818181798,4860.45454497,193.696969678,4621.42424196,3136.24242393,4763.60606013,2839.51515123,5445.66666612,2991.9999997,4623.99999954,4191.27272685,4765.15151467,2476.8484846,4630.18181772,3470.06060571,5178.30302979,1162.18181807,4462.2424238,4125.33333292,42.0,42.0,?
2017-08-01 19:58:17.813065,4921.75757527,3577.21212085,4316.96969654,2353.21212098,3982.12121172,2167.75757554,4232.48484806,354.424242389,4635.84848438,197.818181798,4810.484848,193.696969678,4570.93939348,3136.24242393,4714.6666662,2839.51515123,5408.57575703,2991.9999997,4576.09090863,4191.27272685,4724.9696965,2476.8484846,4578.66666621,3470.06060571,5140.69696918,1162.18181807,4428.2424238,4125.33333292,42.0,42.0,?
2017-08-01 19:58:17.813406,4895.99999951,3577.21212085,4302.0303026,2353.21212098,3960.9999996,2167.75757554,4182.5151511,354.424242389,4588.96969651,197.818181798,4768.75757528,193.696969678,4526.63636318,3136.24242393,4662.12121166,2839.51515123,5339.0303025,2991.9999997,4543.63636318,4191.27272685,4685.81818135,2476.8484846,4568.87878742,3470.06060571,5107.2121207,1162.18181807,4372.60606017,4125.33333292,42.0,42.0,?
2017-08-01 19:58:17.814272,4898.57575709,3577.21212085,4312.84848442,2353.21212098,3962.03030263,2167.75757554,4171.69696928,354.424242389,4593.60606015,197.818181798,4766.69696922,193.696969678,4528.18181773,3136.24242393,4632.75757529,2839.51515123,5269.99999947,2991.9999997,4562.18181773,4191.27272685,4693.03030256,2476.8484846,4623.99999954,3470.06060571,5109.27272676,1162.18181807,4364.87878744,4125.33333292,42.0,42.0,?
2017-08-01 19:58:17.819869,4901.15151466,3577.21212085,4309.24242381,2353.21212098,3961.51515112,2167.75757554,4195.90909049,354.424242389,4618.33333287,197.818181798,4784.21212073,193.696969678,4544.1515147,3136.24242393,4642.03030257,2839.51515123,5280.81818129,2991.9999997,4571.96969651,4191.27272685,4706.93939347,2476.8484846,4623.99999954,3470.06060571,5114.93939343,1162.18181807,4375.69696926,4125.33333292,42.0,42.0,?
2017-08-01 19:58:17.824370,4897.03030254,3577.21212085,4297.90909048,2353.21212098,3962.03030263,2167.75757554,4225.27272685,354.424242389,4639.96969651,197.818181798,4803.78787831,193.696969678,4553.93939348,3136.24242393,4692.51515105,2839.51515123,5366.84848431,2991.9999997,4541.57575712,4191.27272685,4693.03030256,2476.8484846,4551.87878742,3470.06060571,5109.27272676,1162.18181807,4377.75757532,4125.33333292,42.0,42.0,?
2017-08-01 19:58:17.832853,4898.06060557,3577.21212085,4306.15151472,2353.21212098,3967.6969693,2167.75757554,4225.27272685,354.424242389,4628.12121166,197.818181798,4802.75757528,193.696969678,4552.39393894,3136.24242393,4693.03030256,2839.51515123,5407.545454,2991.9999997,4524.06060561,4191.27272685,4689.93939347,2476.8484846,4527.1515147,3470.06060571,5110.30302979,1162.18181807,4384.96969653,4125.33333292,42.0,42.0,?
2017-08-01 19:58:17.841437,4891.87878739,3577.21212085,4308.21212078,2353.21212098,3962.54545415,2167.75757554,4193.33333291,354.424242389,4597.21212075,197.818181798,4776.99999952,193.696969678,4531.27272682,3136.24242393,4629.15151469,2839.51515123,5329.24242371,2991.9999997,4545.18181773,4191.27272685,4693.03030256,2476.8484846,4577.12121166,3470.06060571,5101.54545404,1162.18181807,4382.90909047,4125.33333292,42.0,42.0,?
2017-08-01 19:58:17.847551,4893.93939345,3577.21212085,4307.18181775,2353.21212098,3964.60606021,2167.75757554,4189.72727231,354.424242389,4604.42424196,197.818181798,4775.45454498,193.696969678,4521.48484803,3136.24242393,4629.15151469,2839.51515123,5275.15151462,2991.9999997,4554.454545,4191.27272685,4693.03030256,2476.8484846,4599.27272681,3470.06060571,5103.09090858,1162.18181807,4375.18181774,4125.33333292,42.0,42.0,?
2017-08-01 19:58:17.858810,4921.75757527,3577.21212085,4331.39393896,2353.21212098,3985.21212081,2167.75757554,4220.63636321,354.424242389,4626.0606056,197.818181798,4805.33333285,193.696969678,4545.69696924,3136.24242393,4697.6666662,2839.51515123,5353.96969643,2991.9999997,4551.36363591,4191.27272685,4710.03030256,2476.8484846,4563.72727227,3470.06060571,5123.69696918,1162.18181807,4383.9393935,4125.33333292,42.0,42.0,?
2017-08-01 19:58:17.863887,4953.18181769,3577.21212085,4354.57575714,2353.21212098,4001.6969693,2167.75757554,4248.96969654,354.424242389,4654.90909044,197.818181798,4832.12121164,193.696969678,4577.63636318,3136.24242393,4739.90909044,2839.51515123,5438.96969643,2991.9999997,4585.36363591,4191.27272685,4732.69696922,2476.8484846,4565.27272682,3470.06060571,5137.60606009,1162.18181807,4407.6363632,4125.33333292,42.0,42.0,?
2017-08-01 19:58:17.871293,4971.21212072,3577.21212085,4354.06060563,2353.21212098,4011.48484808,2167.75757554,4275.75757533,354.424242389,4707.9696965,197.818181798,4858.90909042,193.696969678,4605.45454499,3136.24242393,4755.36363589,2839.51515123,5452.36363582,2991.9999997,4619.3636359,4191.27272685,4750.21212074,2476.8484846,4622.96969651,3470.06060571,5156.15151464,1162.18181807,4440.09090865,4125.33333292,42.0,42.0,?
2017-08-01 19:58:17.880676,4986.66666617,3515.39393904,4359.72727229,2353.21212098,4026.42424202,2167.75757554,4295.84848442,354.424242389,4731.66666619,197.818181798,4882.0909086,193.696969678,4626.57575711,3136.24242393,4768.24242377,2839.51515123,5441.545454,2991.9999997,4640.48484802,4191.27272685,4764.12121164,2476.8484846,4668.81818135,3470.06060571,5174.69696918,1162.18181807,4474.60606016,4125.33333292,42.0,42.0,?
2017-08-01 19:58:17.886123,4963.48484799,3515.39393904,4344.78787835,2344.96969674,4007.36363596,2167.75757554,4262.87878745,354.424242389,4676.54545408,197.818181798,4842.93939346,193.696969678,4588.454545,3136.24242393,4723.93939347,2839.51515123,5373.03030249,2991.9999997,4634.30302984,4191.27272685,4743.51515104,2476.8484846,4663.6666662,3470.06060571,5157.18181767,1162.18181807,4441.12121168,4125.33333292,42.0,42.0,?
2017-08-01 19:58:17.893628,4903.21212072,3515.39393904,4304.60606018,2344.96969674,3963.57575718,2167.75757554,4192.30302988,354.424242389,4605.45454499,197.818181798,4773.39393892,193.696969678,4511.18181773,3136.24242393,4640.99999954,2839.51515123,5278.75757523,2991.9999997,4563.21212076,4191.27272685,4701.78787832,2476.8484846,4625.03030257,3470.06060571,5121.12121161,1162.18181807,4361.27272684,4112.96969656,42.0,42.0,?
2017-08-01 19:58:17.905462,4948.54545405,3515.39393904,4352.51515108,2344.96969674,4008.90909051,2204.84848463,4235.57575715,354.424242389,4663.6666662,197.818181798,4831.60606012,193.696969678,4564.24242379,3136.24242393,4702.30302983,2839.51515123,5385.90909037,2991.9999997,4579.69696924,4191.27272685,4751.75757528,2476.8484846,4638.93939348,3470.06060571,5162.84848433,1162.18181807,4429.27272683,4112.96969656,42.0,42.0,?
2017-08-01 19:58:17.910180,5070.12121161,3515.39393904,4441.12121168,2344.96969674,4096.99999959,2204.84848463,4372.60606017,358.54545451,4798.63636316,197.818181798,4969.66666617,193.696969678,4715.69696923,3136.24242393,4870.24242376,2839.51515123,5571.87878732,2991.9999997,4717.75757529,4191.27272685,4847.06060558,2476.8484846,4716.72727226,3470.06060571,5249.90909038,1162.18181807,4584.33333287,4112.96969656,42.0,42.0,?
2017-08-01 19:58:17.921118,5080.42424192,3515.39393904,4422.57575713,2344.96969674,4089.27272686,2204.84848463,4411.2424238,358.54545451,4827.99999952,115.393939382,4994.90909041,193.696969678,4747.12121165,3136.24242393,4902.18181769,2839.51515123,5564.1515146,2991.9999997,4753.30302983,4191.27272685,4843.45454497,2476.8484846,4750.21212074,3470.06060571,5251.45454493,1162.18181807,4570.93939348,4112.96969656,42.0,42.0,?
2017-08-01 19:58:17.926015,5044.36363586,3515.39393904,4384.96969653,2344.96969674,4064.03030262,2204.84848463,4364.36363593,358.54545451,4786.27272679,115.393939382,4953.6969692,115.393939382,4695.09090862,3136.24242393,4843.45454497,2839.51515123,5528.60606005,2991.9999997,4697.6666662,4191.27272685,4808.93939346,2476.8484846,4729.09090862,3470.06060571,5221.57575705,1162.18181807,4506.03030258,4112.96969656,42.0,42.0,?
2017-08-01 19:58:17.934312,5090.2121207,3515.39393904,4424.12121168,2344.96969674,4106.27272686,2204.84848463,4378.27272683,358.54545451,4796.5757571,115.393939382,4972.75757526,115.393939382,4713.12121165,3070.30303,4871.27272679,2839.51515123,5574.4545449,2991.9999997,4724.45454498,4191.27272685,4847.06060558,2476.8484846,4757.42424195,3470.06060571,5256.60606008,1162.18181807,4583.81818136,4112.96969656,42.0,42.0,?
2017-08-01 19:58:17.944333,5104.63636313,3515.39393904,4426.18181774,2344.96969674,4111.93939353,2204.84848463,4394.75757532,358.54545451,4801.21212073,115.393939382,4979.96969647,115.393939382,4726.51515104,3070.30303,4887.75757527,2798.30303002,5548.69696914,2991.9999997,4753.81818134,4191.27272685,4862.51515103,2476.8484846,4791.42424195,3470.06060571,5273.09090856,1162.18181807,4618.33333287,4112.96969656,42.0,42.0,?
2017-08-01 19:58:17.948667,5056.21212071,3515.39393904,4377.75757532,2344.96969674,4066.6060602,2204.84848463,4363.3333329,358.54545451,4779.06060558,115.393939382,4946.99999951,115.393939382,4688.39393893,3070.30303,4830.57575709,2798.30303002,5492.545454,2979.63636334,4706.93939347,4191.27272685,4822.33333285,2476.8484846,4746.09090862,3470.06060571,5243.21212069,1162.18181807,4526.63636318,4112.96969656,42.0,42.0,?
2017-08-01 19:58:17.958988,5057.75757525,3515.39393904,4376.72727229,2344.96969674,4062.48484808,2204.84848463,4353.54545411,358.54545451,4784.21212073,115.393939382,4940.81818132,115.393939382,4684.78787832,3070.30303,4815.63636315,2798.30303002,5495.63636309,2979.63636334,4698.18181771,4067.63636323,4819.24242376,2476.8484846,4719.30302983,3470.06060571,5241.15151463,1162.18181807,4500.87878743,4112.96969656,42.0,42.0,?
2017-08-01 19:58:17.965731,5063.93939343,3515.39393904,4389.60606017,2344.96969674,4072.27272687,2204.84848463,4339.12121169,358.54545451,4764.63636316,115.393939382,4928.96969648,115.393939382,4687.87878741,3070.30303,4815.12121164,2798.30303002,5477.09090854,2979.63636334,4714.15151468,4067.63636323,4835.72727224,2456.242424,4741.9696965,3470.06060571,5252.99999947,1162.18181807,4529.21212076,4112.96969656,42.0,42.0,?
2017-08-01 19:58:17.972375,5067.54545404,3515.39393904,4395.27272683,2344.96969674,4086.18181777,2204.84848463,4353.54545411,358.54545451,4776.48484801,115.393939382,4939.78787829,115.393939382,4701.78787832,3070.30303,4830.06060558,2798.30303002,5514.18181763,2979.63636334,4714.15151468,4067.63636323,4848.60606012,2456.242424,4747.12121165,3367.03030269,5266.39393887,1162.18181807,4549.30302985,4112.96969656,42.0,42.0,?
2017-08-01 19:58:17.979645,5061.87878737,3515.39393904,4380.3333329,2344.96969674,4073.81818141,2204.84848463,4367.96969653,358.54545451,4777.51515104,115.393939382,4945.45454496,115.393939382,4703.84848438,3070.30303,4848.09090861,2798.30303002,5551.78787823,2979.63636334,4698.69696923,4067.63636323,4836.24242376,2456.242424,4714.6666662,3367.03030269,5258.15151463,1137.45454534,4530.24242379,4112.96969656,42.0,42.0,?
2017-08-01 19:58:17.988136,4946.48484799,3515.39393904,4294.81818139,2344.96969674,3976.96969657,2204.84848463,4239.69696927,358.54545451,4611.12121166,115.393939382,4814.60606012,115.393939382,4577.12121166,3070.30303,4714.6666662,2798.30303002,5363.24242371,2979.63636334,4589.99999954,4063.51515111,4753.81818134,2456.242424,4637.39393893,3367.03030269,5181.39393888,1137.45454534,4384.96969653,4112.96969656,42.0,42.0,?
2017-08-01 19:58:17.996771,4844.484848,3515.39393904,4249.99999958,2344.96969674,3923.90909052,2204.84848463,4117.09090868,358.54545451,4507.06060561,115.393939382,4703.84848438,115.393939382,4469.45454501,3070.30303,4586.39393894,2798.30303002,5225.18181766,2979.63636334,4490.57575713,4063.51515111,4684.2727268,2468.60606036,4556.51515106,3367.03030269,5114.93939343,1137.45454534,4282.96969654,4112.96969656,42.0,42.0,?
2017-08-01 19:58:18.007703,4913.51515102,3515.39393904,4323.66666623,2344.96969674,3998.09090869,2204.84848463,4205.18181776,358.54545451,4648.21212075,115.393939382,4800.1818177,115.393939382,4561.66666621,3070.30303,4695.60606014,2798.30303002,5389.51515098,2979.63636334,4551.87878742,4063.51515111,4737.33333286,2468.60606036,4564.24242379,3367.03030269,5163.36363585,1137.45454534,4383.9393935,4112.96969656,42.0,42.0,?
2017-08-01 19:58:18.013076,4997.48484799,3515.39393904,4379.30302987,2344.96969674,4053.21212081,2204.84848463,4320.57575714,358.54545451,4756.39393892,115.393939382,4908.36363587,115.393939382,4667.27272681,3070.30303,4814.60606012,2798.30303002,5521.90909036,2979.63636334,4647.18181772,4063.51515111,4825.93939346,2468.60606036,4633.27272681,3367.03030269,5243.21212069,1137.45454534,4490.57575713,4112.96969656,42.0,42.0,?
2017-08-01 19:58:18.019838,4971.72727223,3515.39393904,4353.54545411,2344.96969674,4026.93939354,2204.84848463,4298.42424199,358.54545451,4705.90909044,115.393939382,4880.54545406,115.393939382,4637.90909045,3070.30303,4760.51515104,2798.30303002,5445.15151461,2979.63636334,4639.96969651,4063.51515111,4805.84848437,2468.60606036,4657.99999953,3367.03030269,5225.18181766,1137.45454534,4474.09090864,4112.96969656,42.0,42.0,?
2017-08-01 19:58:18.028857,4957.30302981,3515.39393904,4344.27272684,2344.96969674,4024.36363596,2204.84848463,4276.27272685,358.54545451,4694.06060559,115.393939382,4857.36363588,115.393939382,4613.18181772,3070.30303,4734.24242377,2798.30303002,5401.36363582,2979.63636334,4625.54545408,4063.51515111,4761.03030255,2468.60606036,4657.99999953,3367.03030269,5190.66666615,1137.45454534,4427.21212077,4112.96969656,42.0,42.0,?
2017-08-01 19:58:18.038081,4975.84848435,3515.39393904,4358.18181775,2344.96969674,4041.87878747,2204.84848463,4291.21212078,358.54545451,4708.48484801,115.393939382,4871.7878783,115.393939382,4625.03030257,3070.30303,4772.8787874,2798.30303002,5428.15151461,2979.63636334,4647.18181772,4063.51515111,4781.12121164,2468.60606036,4672.42424196,3367.03030269,5210.24242372,1137.45454534,4409.18181774,4112.96969656,42.0,42.0,?
2017-08-01 19:58:18.045914,4973.27272678,3515.39393904,4358.18181775,2344.96969674,4036.72727232,2204.84848463,4269.06060563,358.54545451,4678.60606014,115.393939382,4857.87878739,115.393939382,4617.30302984,3070.30303,4761.54545407,2798.30303002,5411.66666613,2979.63636334,4652.33333287,4063.51515111,4805.84848437,2468.60606036,4681.18181771,3367.03030269,5226.21212069,1137.45454534,4436.99999956,4112.96969656,42.0,42.0,?
2017-08-01 19:58:18.052003,4969.15151465,3515.39393904,4357.66666623,2344.96969674,4031.57575717,2204.84848463,4242.78787836,358.54545451,4665.21212075,115.393939382,4841.90909042,115.393939382,4621.42424196,3070.30303,4740.42424195,2798.30303002,5395.18181764,2979.63636334,4643.0606056,4063.51515111,4789.36363588,2468.60606036,4681.18181771,3367.03030269,5215.90909039,1137.45454534,4485.93939349,4112.96969656,42.0,42.0,?
2017-08-01 19:58:18.065909,4938.75757526,3515.39393904,4332.42424199,2344.96969674,4015.09090869,2204.84848463,4242.27272685,358.54545451,4653.87878741,115.393939382,4826.96969649,115.393939382,4611.63636318,3070.30303,4722.90909044,2798.30303002,5373.03030249,2979.63636334,4596.18181772,4063.51515111,4745.5757571,2468.60606036,4644.09090863,3367.03030269,5177.27272675,1137.45454534,4464.30302986,4112.96969656,42.0,42.0,?
2017-08-01 19:58:18.066642,4917.63636314,3515.39393904,4320.57575714,2344.96969674,4009.42424202,2204.84848463,4261.84848442,358.54545451,4651.30302984,115.393939382,4831.60606012,115.393939382,4595.66666621,3070.30303,4712.09090862,2798.30303002,5378.69696916,2979.63636334,4560.63636318,4063.51515111,4739.90909044,2468.60606036,4598.24242378,3367.03030269,5164.39393888,1137.45454534,4423.60606016,4112.96969656,42.0,42.0,?
2017-08-01 19:58:18.075487,4970.18181768,3515.39393904,4366.42424199,2344.96969674,4047.03030263,2204.84848463,4301.51515109,358.54545451,4696.12121165,115.393939382,4882.0909086,115.393939382,4640.48484802,3070.30303,4764.12121164,2798.30303002,5465.2424237,2979.63636334,4617.30302984,4063.51515111,4790.39393891,2468.60606036,4627.09090863,3367.03030269,5209.72727221,1137.45454534,4460.69696925,4112.96969656,42.0,42.0,?
2017-08-01 19:58:18.081709,5001.09090859,3515.39393904,4377.2424238,2344.96969674,4061.96969656,2204.84848463,4309.75757533,358.54545451,4723.93939347,115.393939382,4894.96969648,115.393939382,4665.72727226,3070.30303,4799.15151467,2798.30303002,5498.72727218,2979.63636334,4665.21212075,4063.51515111,4809.45454497,2468.60606036,4664.18181772,3367.03030269,5229.30302978,1137.45454534,4487.48484804,4112.96969656,42.0,42.0,?
2017-08-01 19:58:18.092828,5013.96969647,3515.39393904,4378.78787835,2344.96969674,4072.78787838,2204.84848463,4329.84848442,358.54545451,4751.75757528,115.393939382,4906.30302981,115.393939382,4666.24242378,3070.30303,4809.96969649,2798.30303002,5501.81818127,2979.63636334,4674.99999953,4063.51515111,4818.21212073,2468.60606036,4673.45454499,3367.03030269,5235.48484796,1137.45454534,4513.24242379,4112.96969656,42.0,42.0,?
2017-08-01 19:58:18.096905,5189.1212116,3515.39393904,4512.72727228,2344.96969674,4202.09090867,2204.84848463,4506.03030258,358.54545451,4926.3939389,115.393939382,5086.6060601,115.393939382,4821.81818134,3070.30303,4978.42424193,2798.30303002,5662.54545398,2979.63636334,4839.84848436,4063.51515111,4961.93939344,2468.60606036,4843.96969649,3367.03030269,5361.18181765,1137.45454534,4694.06060559,4112.96969656,42.0,42.0,?
2017-08-01 19:58:18.105558,5391.06060552,3515.39393904,4637.90909045,2344.96969674,4336.0303026,2204.84848463,4684.2727268,358.54545451,5111.33333282,115.393939382,5279.78787826,115.393939382,5020.66666616,3070.30303,5178.8181813,2798.30303002,5822.24242366,2979.63636334,5060.84848434,4063.51515111,5118.54545403,2468.60606036,5093.81818131,3367.03030269,5509.54545399,1137.45454534,4895.99999951,4112.96969656,42.0,42.0,?
2017-08-01 19:58:18.115229,5387.96969643,3515.39393904,4600.30302984,2344.96969674,4319.54545411,2204.84848463,4654.90909044,358.54545451,5097.93939343,115.393939382,5261.75757523,115.393939382,5024.78787829,3070.30303,5183.96969645,2798.30303002,5811.93939336,2979.63636334,5072.69696919,4063.51515111,5103.6060601,2468.60606036,5122.66666615,3367.03030269,5504.90909036,1137.45454534,4898.57575709,4112.96969656,42.0,42.0,?
2017-08-01 19:58:18.124403,5347.27272674,3515.39393904,4559.09090864,2344.96969674,4292.24242381,2204.84848463,4625.03030257,358.54545451,5063.93939343,115.393939382,5225.18181766,115.393939382,4988.21212071,3070.30303,5157.69696918,2798.30303002,5842.84848426,2979.63636334,5019.63636313,4063.51515111,5071.15151464,2468.60606036,5048.9999995,3367.03030269,5467.30302976,1137.45454534,4864.06060557,4112.96969656,42.0,42.0,?
2017-08-01 19:58:18.129834,5410.6363631,3515.39393904,4592.57575712,2344.96969674,4343.75757532,2204.84848463,4715.69696923,358.54545451,5132.96969646,115.393939382,5302.96969644,115.393939382,5048.48484798,3070.30303,5224.66666614,2798.30303002,5938.15151456,2979.63636334,5086.6060601,4063.51515111,5128.33333282,2468.60606036,5094.33333282,3367.03030269,5519.33333278,1137.45454534,4927.93939345,4112.96969656,42.0,42.0,?
2017-08-01 19:58:18.137816,5439.48484794,3515.39393904,4593.09090863,2344.96969674,4357.15151472,2204.84848463,4724.45454498,358.54545451,5146.87878736,115.393939382,5319.45454492,115.393939382,5064.45454495,3070.30303,5244.24242372,2798.30303002,5912.90909032,2979.63636334,5130.39393888,4063.51515111,5142.24242373,2468.60606036,5139.66666615,3367.03030269,5541.99999945,1137.45454534,4946.99999951,4112.96969656,42.0,42.0,?
2017-08-01 19:58:18.145719,5412.69696916,3515.39393904,4565.27272682,2344.96969674,4330.36363593,2204.84848463,4674.48484802,358.54545451,5102.06060555,115.393939382,5273.60606008,115.393939382,5026.33333283,3070.30303,5195.8181813,2798.30303002,5867.06060547,2979.63636334,5083.51515101,4063.51515111,5112.87878737,2468.60606036,5111.33333282,3367.03030269,5518.81818127,1137.45454534,4910.42424193,4112.96969656,42.0,42.0,?
2017-08-01 19:58:18.151626,5398.27272673,3515.39393904,4549.81818136,2344.96969674,4324.18181775,2204.84848463,4673.9696965,358.54545451,5092.27272676,115.393939382,5264.84848432,115.393939382,5019.63636313,3070.30303,5175.72727221,2798.30303002,5889.21212062,2979.63636334,5053.12121162,4063.51515111,5109.27272676,2468.60606036,5085.06060555,3367.03030269,5513.1515146,1137.45454534,4902.69696921,4112.96969656,42.0,42.0,?
2017-08-01 19:58:18.162433,5380.75757522,3515.39393904,4535.39393894,2344.96969674,4316.96969654,2204.84848463,4655.93939347,358.54545451,5087.12121161,115.393939382,5255.57575705,115.393939382,5018.6060601,3070.30303,5183.45454494,2798.30303002,5872.21212062,2979.63636334,5064.45454495,4063.51515111,5103.09090858,2468.60606036,5080.93939343,3367.03030269,5505.42424187,1137.45454534,4888.7878783,4112.96969656,42.0,42.0,?
2017-08-01 19:58:18.168397,5373.54545401,3515.39393904,4534.87878743,2344.96969674,4316.45454502,2204.84848463,4648.72727226,358.54545451,5083.51515101,115.393939382,5248.36363584,115.393939382,5011.39393889,3070.30303,5186.03030251,2798.30303002,5838.21212063,2979.63636334,5074.24242374,4063.51515111,5111.33333282,2468.60606036,5091.24242373,3367.03030269,5517.27272672,1137.45454534,4877.96969648,4112.96969656,42.0,42.0,?
2017-08-01 19:58:18.181958,5357.57575704,3515.39393904,4516.8484844,2344.96969674,4306.15151472,2204.84848463,4649.75757529,358.54545451,5061.87878737,115.393939382,5232.90909039,115.393939382,4986.66666617,3070.30303,5154.60606009,2798.30303002,5840.27272669,2979.63636334,5028.39393889,4063.51515111,5105.15151464,2468.60606036,5056.21212071,3367.03030269,5519.8484843,1137.45454534,4870.24242376,4112.96969656,42.0,42.0,?
2017-08-01 19:58:18.182720,5380.2424237,3515.39393904,4538.48484803,2344.96969674,4326.24242381,2204.84848463,4655.93939347,358.54545451,5073.72727222,115.393939382,5250.4242419,115.393939382,5006.75757526,3070.30303,5179.84848433,2798.30303002,5887.15151456,2979.63636334,5030.96969647,4063.51515111,5110.81818131,2468.60606036,5038.69696919,3367.03030269,5527.06060551,1137.45454534,4903.72727224,4112.96969656,42.0,42.0,?
2017-08-01 19:58:18.190730,5579.09090853,3515.39393904,4700.24242377,2344.96969674,4479.24242379,2204.84848463,4839.33333285,358.54545451,5281.84848432,115.393939382,5450.30302976,115.393939382,5201.48484796,3070.30303,5397.75757522,2798.30303002,6071.57575697,2979.63636334,5246.81818129,4063.51515111,5279.27272674,2468.60606036,5233.93939342,3367.03030269,5674.90909034,1137.45454534,5115.45454494,4112.96969656,42.0,42.0,?
2017-08-01 19:58:18.199441,5808.33333275,3515.39393904,4834.1818177,2344.96969674,4634.81818135,2204.84848463,5089.69696919,358.54545451,5522.93939339,115.393939382,5688.30302973,115.393939382,5424.03030249,3070.30303,5622.3636358,2798.30303002,6291.54545392,2979.63636334,5504.90909036,4063.51515111,5480.18181763,2468.60606036,5520.87878733,3367.03030269,5855.21212063,1137.45454534,5361.18181765,4112.96969656,42.0,42.0,?
2017-08-01 19:58:18.207411,5799.06060548,3515.39393904,4768.75757528,2344.96969674,4600.30302984,2204.84848463,5069.6060601,358.54545451,5500.78787824,115.393939382,5667.69696913,115.393939382,5415.27272673,3070.30303,5596.09090853,2798.30303002,6275.06060543,2979.63636334,5510.06060551,4063.51515111,5454.93939339,2468.60606036,5568.78787823,3367.03030269,5847.99999942,1137.45454534,5351.39393886,4112.96969656,42.0,42.0,?
2017-08-01 19:58:18.215053,5708.90909034,3515.39393904,4697.15151468,2344.96969674,4535.90909046,2204.84848463,4960.3939389,358.54545451,5414.2424237,115.393939382,5574.4545449,115.393939382,5330.78787825,3070.30303,5511.09090854,2798.30303002,6164.8181812,2979.63636334,5404.96969643,4063.51515111,5365.81818128,2468.60606036,5451.33333279,3367.03030269,5775.8787873,1137.45454534,5235.48484796,4112.96969656,42.0,42.0,?
2017-08-01 19:58:18.223655,5866.54545396,3515.39393904,4830.57575709,2344.96969674,4674.48484802,2204.84848463,5138.63636312,358.54545451,5599.18181762,115.393939382,5747.54545397,115.393939382,5480.18181763,3070.30303,5694.48484792,2798.30303002,6351.81818118,2979.63636334,5543.03030248,4063.51515111,5510.06060551,2468.60606036,5536.84848429,3367.03030269,5898.99999941,1137.45454534,5390.54545401,4112.96969656,42.0,42.0,?
2017-08-01 19:58:18.230200,6073.12121151,3515.39393904,4952.66666617,2344.96969674,4816.15151467,2204.84848463,5339.0303025,358.54545451,5784.12121154,115.393939382,5937.63636304,115.393939382,5664.09090852,3070.30303,5910.33333274,2798.30303002,6614.03030237,2979.63636334,5753.72727215,4063.51515111,5675.42424186,2468.60606036,5738.78787821,3367.03030269,6058.18181758,1137.45454534,5629.0606055,4112.96969656,42.0,42.0,?
2017-08-01 19:58:18.240423,6000.9999994,3515.39393904,4847.06060558,2344.96969674,4734.75757528,2204.84848463,5232.90909039,358.54545451,5665.12121155,115.393939382,5835.12121154,115.393939382,5585.78787823,3070.30303,5825.84848427,2798.30303002,6532.12121147,2979.63636334,5685.21212064,4063.51515111,5586.30302974,2468.60606036,5701.69696913,3367.03030269,5993.27272667,1137.45454534,5538.39393884,4112.96969656,42.0,42.0,?
2017-08-01 19:58:18.248772,5878.90909032,3515.39393904,4744.54545407,2344.96969674,4647.69696923,2204.84848463,5106.18181767,358.54545451,5545.60606005,115.393939382,5713.54545397,115.393939382,5473.48484794,3070.30303,5702.72727216,2798.30303002,6374.48484785,2979.63636334,5553.33333278,4063.51515111,5491.51515097,2468.60606036,5564.1515146,3367.03030269,5902.60606002,1137.45454534,5367.36363583,4112.96969656,42.0,42.0,?
2017-08-01 19:58:18.254412,5936.0909085,3515.39393904,4800.1818177,2344.96969674,4705.90909044,2204.84848463,5166.45454494,358.54545451,5617.21212065,115.393939382,5774.33333276,115.393939382,5526.03030248,3070.30303,5759.39393882,2798.30303002,6417.2424236,2979.63636334,5618.24242368,4063.51515111,5562.60606005,2468.60606036,5616.69696914,3367.03030269,5964.93939334,1137.45454534,5460.09090854,4112.96969656,42.0,42.0,?
2017-08-01 19:58:18.262775,5991.21212061,3515.39393904,4838.30302982,2344.96969674,4742.99999953,2204.84848463,5198.39393887,358.54545451,5650.18181762,115.393939382,5815.54545396,115.393939382,5571.36363581,3070.30303,5805.24242366,2798.30303002,6456.90909026,2979.63636334,5685.72727216,4063.51515111,5608.96969641,2468.60606036,5714.06060549,3367.03030269,6012.84848425,1137.45454534,5587.84848429,4112.96969656,42.0,42.0,?
2017-08-01 19:58:18.270839,5945.87878728,3515.39393904,4784.72727225,2344.96969674,4697.15151468,2204.84848463,5146.87878736,358.54545451,5596.09090853,115.393939382,5765.06060548,115.393939382,5522.93939339,3070.30303,5753.72727215,2798.30303002,6415.18181754,2979.63636334,5620.81818126,4063.51515111,5569.30302975,2468.60606036,5653.27272671,3367.03030269,5972.66666607,1137.45454534,5516.75757521,4112.96969656,42.0,42.0,?
2017-08-01 19:58:18.281589,5885.0909085,3515.39393904,4724.45454498,2344.96969674,4651.30302984,2204.84848463,5111.84848434,358.54545451,5554.87878732,115.393939382,5713.54545397,115.393939382,5458.03030248,3070.30303,5680.06060549,2798.30303002,6353.87878724,2979.63636334,5537.87878733,4063.51515111,5521.39393884,2468.60606036,5558.48484793,3367.03030269,5925.7878782,1137.45454534,5386.42424189,4112.96969656,42.0,42.0,?
2017-08-01 19:58:18.285356,5821.21212063,3515.39393904,4686.84848438,2344.96969674,4611.63636318,2204.84848463,5046.93939343,358.54545451,5482.24242369,115.393939382,5649.6666661,115.393939382,5391.57575704,3070.30303,5601.24242368,2798.30303002,6252.39393877,2979.63636334,5482.24242369,4063.51515111,5463.69696915,2468.60606036,5527.57575702,3367.03030269,5872.21212062,1137.45454534,5328.21212068,4112.96969656,42.0,42.0,?
2017-08-01 19:58:18.295071,5798.54545397,3515.39393904,4688.90909044,2344.96969674,4600.81818136,2204.84848463,5008.81818132,358.54545451,5446.69696915,115.393939382,5621.84848429,115.393939382,5375.60606007,3070.30303,5584.7575752,2798.30303002,6234.87878726,2979.63636334,5471.93939339,4063.51515111,5443.09090855,2468.60606036,5505.42424187,3367.03030269,5842.33333275,1137.45454534,5337.48484795,4112.96969656,42.0,42.0,?
2017-08-01 19:58:18.302453,5849.54545396,3515.39393904,4725.99999953,2344.96969674,4644.09090863,2204.84848463,5081.96969646,358.54545451,5526.54545399,115.393939382,5687.2727267,115.393939382,5442.57575703,3070.30303,5660.99999943,2798.30303002,6360.57575694,2979.63636334,5515.72727218,4063.51515111,5489.45454491,2468.60606036,5495.63636309,3367.03030269,5884.06060547,1137.45454534,5368.39393886,4112.96969656,42.0,42.0,?
2017-08-01 19:58:18.314275,5873.75757517,3515.39393904,4738.36363589,2344.96969674,4665.72727226,2204.84848463,5117.515151,358.54545451,5564.66666611,115.393939382,5723.84848428,115.393939382,5478.63636309,3070.30303,5701.69696913,2798.30303002,6404.87878724,2979.63636334,5532.72727217,4063.51515111,5506.96969642,2468.60606036,5519.33333278,3367.03030269,5912.90909032,1137.45454534,5364.27272674,4112.96969656,42.0,42.0,?
2017-08-01 19:58:18.318380,5862.93939335,3515.39393904,4736.81818134,2344.96969674,4655.42424196,2204.84848463,5090.2121207,358.54545451,5537.87878733,115.393939382,5705.30302973,115.393939382,5462.66666612,3070.30303,5681.09090852,2798.30303002,6333.27272664,2979.63636334,5537.36363581,4063.51515111,5499.75757521,2468.60606036,5565.69696914,3367.03030269,5904.15151456,1137.45454534,5362.72727219,4112.96969656,42.0,42.0,?
2017-08-01 19:58:18.325532,5918.06060547,3515.39393904,4775.45454498,2344.96969674,4698.18181771,2204.84848463,5147.39393888,358.54545451,5592.48484793,115.393939382,5758.36363579,115.393939382,5500.78787824,3070.30303,5717.15151458,2798.30303002,6354.90909027,2979.63636334,5611.03030247,4063.51515111,5556.93939338,2468.60606036,5635.24242368,3367.03030269,5949.48484789,1137.45454534,5438.45454491,4112.96969656,42.0,42.0,?
2017-08-01 19:58:18.333487,6017.48484788,3515.39393904,4845.51515103,2344.96969674,4779.06060558,2204.84848463,5233.4242419,358.54545451,5688.81818125,115.393939382,5852.12121154,115.393939382,5586.30302974,3070.30303,5811.93939336,2798.30303002,6470.81818117,2979.63636334,5709.42424185,4063.51515111,5637.30302974,2468.60606036,5716.63636306,3367.03030269,6026.24242364,1137.45454534,5552.30302975,4112.96969656,42.0,42.0,?
2017-08-01 19:58:18.340325,6074.66666606,3515.39393904,4887.75757527,2344.96969674,4819.24242376,2204.84848463,5262.27272675,358.54545451,5725.39393882,115.393939382,5891.27272668,115.393939382,5636.78787822,3070.30303,5878.90909032,2798.30303002,6556.33333268,2979.63636334,5753.21212064,4063.51515111,5666.15151458,2468.60606036,5762.48484791,3367.03030269,6054.57575697,1137.45454534,5609.99999944,4112.96969656,42.0,42.0,?
2017-08-01 19:58:18.347700,6107.63636303,3515.39393904,4890.33333284,2344.96969674,4836.75757527,2204.84848463,5319.96969644,358.54545451,5768.15151457,115.393939382,5928.87878729,115.393939382,5665.63636307,3070.30303,5922.6969691,2798.30303002,6593.93939328,2979.63636334,5782.06060548,4063.51515111,5685.21212064,2468.60606036,5782.06060548,3367.03030269,6071.57575697,1137.45454534,5624.93939338,4112.96969656,42.0,42.0,?
2017-08-01 19:58:18.356366,6101.96969636,3515.39393904,4857.87878739,2344.96969674,4835.72727224,2204.84848463,5344.69696916,358.54545451,5790.30302972,115.393939382,5944.33333274,115.393939382,5665.63636307,3070.30303,5931.45454486,2798.30303002,6576.42424177,2979.63636334,5789.78787821,4063.51515111,5686.24242367,2468.60606036,5784.63636306,3367.03030269,6070.54545394,1137.45454534,5635.75757519,4112.96969656,42.0,42.0,?
2017-08-01 19:58:18.363648,5985.03030243,3515.39393904,4771.33333286,2344.96969674,4752.2727268,2204.84848463,5208.18181766,358.54545451,5657.39393883,115.393939382,5820.69696911,115.393939382,5559.51515096,3070.30303,5806.78787821,2798.30303002,6453.30302966,2979.63636334,5677.48484792,4063.51515111,5592.48484793,2468.60606036,5692.42424186,3367.03030269,5981.42424183,1137.45454534,5551.78787823,4112.96969656,42.0,42.0,?
2017-08-01 19:58:18.371584,5883.03030244,3515.39393904,4711.06060559,2344.96969674,4673.9696965,2204.84848463,5092.78787828,358.54545451,5533.24242369,115.393939382,5707.36363579,115.393939382,5460.09090854,3070.30303,5671.81818125,2798.30303002,6340.48484785,2979.63636334,5558.99999944,4063.51515111,5514.18181763,2468.60606036,5586.81818126,3367.03030269,5910.84848426,1137.45454534,5419.90909037,4112.96969656,42.0,42.0,?
2017-08-01 19:58:18.382702,5937.12121153,3169.2121209,4759.48484801,2344.96969674,4719.30302983,2204.84848463,5148.93939342,358.54545451,5596.60606005,115.393939382,5764.03030245,115.393939382,5505.42424187,3070.30303,5716.63636306,2798.30303002,6383.75757512,2979.63636334,5590.93939338,4063.51515111,5560.54545399,2468.60606036,5606.39393883,3367.03030269,5953.60606001,1137.45454534,5431.75757521,4112.96969656,42.0,42.0,?
2017-08-01 19:58:18.388218,6086.51515091,3169.2121209,4876.42424194,2221.33333311,4838.81818133,2204.84848463,5280.81818129,358.54545451,5744.9696964,115.393939382,5905.18181759,115.393939382,5638.33333277,3070.30303,5877.36363578,2798.30303002,6535.72727207,2979.63636334,5732.09090852,4063.51515111,5672.84848428,2468.60606036,5734.15151458,3367.03030269,6061.27272667,1137.45454534,5596.09090853,4112.96969656,42.0,42.0,?
2017-08-01 19:58:18.400921,6143.69696908,3169.2121209,4905.7878783,2221.33333311,4872.30302982,2204.84848463,5324.60606007,358.54545451,5782.06060548,115.393939382,5947.42424183,115.393939382,5688.30302973,3070.30303,5935.06060547,2798.30303002,6605.78787813,2979.63636334,5794.93939336,4063.51515111,5708.39393882,2468.60606036,5800.09090851,3367.03030269,6103.5151509,1137.45454534,5667.18181762,3729.69696932,42.0,42.0,?
2017-08-01 19:58:18.407413,6079.81818121,3169.2121209,4838.81818133,2221.33333311,4822.84848437,2171.87878766,5279.27272674,358.54545451,5718.69696913,115.393939382,5892.81818123,115.393939382,5632.6666661,3070.30303,5877.87878729,2798.30303002,6561.48484783,2979.63636334,5745.48484791,4063.51515111,5666.15151458,2468.60606036,5742.90909033,3367.03030269,6070.03030242,1137.45454534,5591.4545449,3729.69696932,42.0,42.0,?
2017-08-01 19:58:18.410358,6131.84848424,3169.2121209,4883.12121163,2221.33333311,4874.87878739,2171.87878766,5347.27272674,4195.39393897,5789.27272669,115.393939382,5960.30302971,115.393939382,5680.06060549,3070.30303,5928.36363577,2798.30303002,6597.03030237,2979.63636334,5812.45454487,4063.51515111,5733.63636306,2468.60606036,5807.30302972,3367.03030269,6127.2121206,1137.45454534,5657.39393883,3729.69696932,42.0,42.0,?
2017-08-01 19:58:18.417762,6318.84848422,3169.2121209,5021.18181768,2221.33333311,5011.90909041,2171.87878766,5520.87878733,4195.39393897,5978.33333274,3935.75757536,6142.15151454,115.393939382,5849.54545396,3070.30303,6095.78787818,2798.30303002,6729.42424175,2979.63636334,5998.42424182,4063.51515111,5879.42424184,2468.60606036,6030.36363576,3367.03030269,6254.96969634,1137.45454534,5866.03030244,3729.69696932,42.0,42.0,?
2017-08-01 19:58:18.427536,6377.06060542,3169.2121209,5037.15151465,2221.33333311,5039.21212071,2171.87878766,5556.93939338,4195.39393897,6020.06060546,3935.75757536,6190.57575696,3960.48484809,5907.75757517,3070.30303,6166.36363575,2798.30303002,6797.42424174,2979.63636334,6049.42424182,4063.51515111,5907.75757517,2468.60606036,6087.03030242,3367.03030269,6285.36363574,1137.45454534,5920.12121153,3729.69696932,42.0,42.0,?
2017-08-01 19:58:18.434232,6331.21212058,3169.2121209,4984.09090859,2221.33333311,5006.24242374,2171.87878766,5513.66666612,4195.39393897,5969.06060546,3935.75757536,6148.33333272,3960.48484809,5872.21212062,2649.93939367,6153.48484787,2798.30303002,6816.99999932,2979.63636334,6007.6969691,4063.51515111,5880.96969638,2468.60606036,5998.93939334,3367.03030269,6263.21212059,1137.45454534,5880.45454487,3729.69696932,42.0,42.0,?
2017-08-01 19:58:18.443311,6374.48484785,3169.2121209,5012.42424192,2221.33333311,5051.57575707,2171.87878766,5572.90909035,4195.39393897,6025.72727212,3935.75757536,6193.66666605,3960.48484809,5908.7878782,2649.93939367,6200.87878726,2402.66666643,6871.0909084,2979.63636334,6059.21212061,4063.51515111,5921.66666607,2468.60606036,6044.27272667,3367.03030269,6294.12121149,1137.45454534,5954.12121153,3729.69696932,42.0,42.0,?
2017-08-01 19:58:18.448790,6387.87878724,3169.2121209,5010.36363586,2221.33333311,5063.93939343,2171.87878766,5576.51515096,4195.39393897,6050.45454485,3935.75757536,6201.39393877,3960.48484809,5924.75757517,2649.93939367,6208.60605999,2402.66666643,6854.60605992,2513.93939369,6073.12121151,4063.51515111,5908.27272668,2468.60606036,6082.9090903,3367.03030269,6284.84848422,1137.45454534,5972.66666607,3729.69696932,42.0,42.0,?
2017-08-01 19:58:18.456820,6314.21212058,3169.2121209,4948.03030254,2221.33333311,5006.75757526,2171.87878766,5490.99999945,4195.39393897,5973.18181758,3935.75757536,6130.81818121,3960.48484809,5869.63636305,2649.93939367,6142.66666605,2402.66666643,6775.78787811,2513.93939369,5995.33333273,3680.24242387,5838.72727214,2468.60606036,6000.48484788,3367.03030269,6220.45454483,1137.45454534,5878.90909032,3729.69696932,42.0,42.0,?
2017-08-01 19:58:18.465253,6301.84848422,3169.2121209,4939.78787829,2221.33333311,4995.93939344,2171.87878766,5498.72727218,4195.39393897,5952.06060547,3935.75757536,6126.18181757,3960.48484809,5858.30302972,2649.93939367,6133.39393878,2402.66666643,6781.96969629,2513.93939369,5977.81818122,3680.24242387,5841.81818123,2143.03030282,5975.24242364,3367.03030269,6212.21212059,1137.45454534,5859.33333275,3729.69696932,42.0,42.0,?
2017-08-01 19:58:18.472718,6311.63636301,3169.2121209,4940.81818132,2221.33333311,5000.06060556,2171.87878766,5513.66666612,4195.39393897,5954.63636304,3935.75757536,6128.75757514,3960.48484809,5853.15151457,2649.93939367,6128.75757514,2402.66666643,6799.99999932,2513.93939369,5972.15151455,3680.24242387,5840.27272669,2143.03030282,5971.12121152,3037.33333303,6211.69696908,1137.45454534,5860.36363578,3729.69696932,42.0,42.0,?
2017-08-01 19:58:18.482289,6302.87878725,3169.2121209,4933.0909086,2221.33333311,4993.36363586,2171.87878766,5468.8484843,4195.39393897,5939.6969691,3935.75757536,6101.96969636,3960.48484809,5838.21212063,2649.93939367,6096.81818121,2402.66666643,6760.84848417,2513.93939369,5963.3939388,3680.24242387,5824.81818124,2143.03030282,5959.27272668,3037.33333303,6200.36363574,910.787878697,5833.57575699,3729.69696932,42.0,42.0,?
2017-08-01 19:58:18.488321,6308.0303024,3169.2121209,4939.78787829,2221.33333311,4997.48484799,2171.87878766,5455.45454491,4195.39393897,5941.75757516,3935.75757536,6098.87878727,3960.48484809,5842.33333275,2649.93939367,6087.54545394,2402.66666643,6719.63636296,2513.93939369,5980.90909031,3688.48484812,5853.15151457,2143.03030282,5996.36363576,3037.33333303,6221.99999938,910.787878697,5819.66666608,3729.69696932,42.0,42.0,?
2017-08-01 19:58:18.497214,6282.27272664,3169.2121209,4915.06060557,2221.33333311,4974.30302981,2171.87878766,5445.66666612,4195.39393897,5907.75757517,3935.75757536,6074.15151454,3960.48484809,5813.99999942,2649.93939367,6062.3030297,2402.66666643,6681.51515085,2513.93939369,5940.72727213,3688.48484812,5827.39393881,2155.39393918,5981.93939334,3037.33333303,6196.75757514,910.787878697,5784.63636306,3729.69696932,42.0,42.0,?
2017-08-01 19:58:18.504850,6180.78787817,3169.2121209,4843.45454497,2221.33333311,4901.15151466,2171.87878766,5351.39393886,4195.39393897,5797.51515094,3935.75757536,5972.15151455,3960.48484809,5719.72727216,2649.93939367,5960.81818122,2402.66666643,6595.48484783,2513.93939369,5813.4848479,3688.48484812,5711.48484791,2155.39393918,5849.03030245,3037.33333303,6091.66666606,910.787878697,5696.03030246,3729.69696932,42.0,42.0,?
2017-08-01 19:58:18.513269,6120.5151509,3169.2121209,4822.84848437,2221.33333311,4873.84848436,2171.87878766,5283.90909038,4195.39393897,5734.15151458,3935.75757536,5909.81818123,3960.48484809,5665.63636307,2649.93939367,5888.69696911,2402.66666643,6557.87878722,2513.93939369,5756.30302973,3688.48484812,5667.69696913,2155.39393918,5770.21212064,3037.33333303,6046.33333273,910.787878697,5646.0606055,3729.69696932,42.0,42.0,?
2017-08-01 19:58:18.520871,6171.5151509,3169.2121209,4878.99999951,2221.33333311,4923.81818133,2171.87878766,5335.42424189,4195.39393897,5791.33333275,3935.75757536,5967.51515092,3960.48484809,5720.24242367,2649.93939367,5944.33333274,2402.66666643,6625.3636357,2513.93939369,5828.42424184,3688.48484812,5730.54545397,2155.39393918,5835.12121154,3037.33333303,6092.18181757,910.787878697,5702.72727216,3729.69696932,42.0,42.0,?
2017-08-01 19:58:18.532179,6201.39393877,3169.2121209,4898.57575709,2221.33333311,4941.33333284,2171.87878766,5382.30302976,4195.39393897,5836.66666608,3935.75757536,6009.75757516,3960.48484809,5764.03030245,2649.93939367,6000.48484788,2402.66666643,6637.72727206,2513.93939369,5860.36363578,3688.48484812,5749.60606003,2155.39393918,5874.27272669,3037.33333303,6111.24242363,910.787878697,5740.84848427,3729.69696932,42.0,42.0,?
2017-08-01 19:58:18.535332,6136.48484787,3169.2121209,4846.54545406,2221.33333311,4892.90909042,2171.87878766,5338.51515098,4195.39393897,5791.84848427,3935.75757536,5958.24242365,3960.48484809,5711.48484791,2649.93939367,5948.96969637,2402.66666643,6568.69696904,2513.93939369,5790.81818124,3688.48484812,5693.9696964,2155.39393918,5796.48484791,3037.33333303,6067.45454485,910.787878697,5672.84848428,3729.69696932,42.0,42.0,?
2017-08-01 19:58:18.544427,6077.24242363,3169.2121209,4807.90909043,2221.33333311,4859.93939345,2171.87878766,5283.90909038,4195.39393897,5734.15151458,3935.75757536,5905.18181759,3960.48484809,5654.30302974,2649.93939367,5886.63636305,2402.66666643,6544.48484783,2513.93939369,5737.75757518,3688.48484812,5662.03030246,2155.39393918,5733.12121155,3037.33333303,6037.06060546,910.787878697,5605.3636358,3729.69696932,42.0,42.0,?
2017-08-01 19:58:18.551647,6090.12121151,3169.2121209,4833.15151467,2221.33333311,4875.90909042,2171.87878766,5273.09090856,4195.39393897,5714.575757,3935.75757536,5903.12121153,3960.48484809,5662.54545398,2649.93939367,5879.93939335,2402.66666643,6539.84848419,2513.93939369,5750.12121155,3688.48484812,5683.6666661,2155.39393918,5767.63636306,3037.33333303,6059.21212061,910.787878697,5611.54545398,3729.69696932,42.0,42.0,?
2017-08-01 19:58:18.561289,6101.45454484,3169.2121209,4854.27272679,2221.33333311,4880.54545406,2171.87878766,5269.48484796,4195.39393897,5717.66666609,3935.75757536,5903.63636305,3960.48484809,5674.39393883,2649.93939367,5870.15151456,2402.66666643,6508.93939329,2513.93939369,5758.36363579,3688.48484812,5683.15151458,2155.39393918,5783.60606003,3037.33333303,6063.33333273,910.787878697,5602.27272671,3729.69696932,42.0,42.0,?
2017-08-01 19:58:18.567094,6101.45454484,3169.2121209,4851.69696921,2221.33333311,4881.06060557,2171.87878766,5286.48484796,4195.39393897,5751.15151458,3935.75757536,5919.0909085,3960.48484809,5680.57575701,2649.93939367,5882.51515093,2402.66666643,6537.78787813,2513.93939369,5747.03030246,3688.48484812,5672.33333277,2155.39393918,5750.12121155,3037.33333303,6053.54545394,910.787878697,5591.96969641,3729.69696932,42.0,42.0,?
2017-08-01 19:58:18.590187,6051.48484788,3169.2121209,4843.45454497,2221.33333311,4877.45454497,2171.87878766,5284.4242419,4195.39393897,5676.9696964,3935.75757536,5918.57575698,3960.48484809,5677.99999943,2649.93939367,5902.0909085,2402.66666643,6575.39393874,2513.93939369,5741.36363579,3688.48484812,5677.48484792,2155.39393918,5738.2727267,3037.33333303,6061.27272667,910.787878697,5617.72727217,3729.69696932,42.0,42.0,?
2017-08-01 19:58:18.590417,6051.48484788,3169.2121209,4771.84848437,2221.33333311,4797.60606013,2171.87878766,5200.45454493,4195.39393897,5676.9696964,3935.75757536,5853.15151457,3960.48484809,5604.33333277,2649.93939367,5837.69696911,2402.66666643,6507.39393874,2513.93939369,5702.72727216,3688.48484812,5630.60606004,2155.39393918,5700.6666661,3037.33333303,6031.39393879,910.787878697,5582.18181762,3729.69696932,42.0,42.0,?
2017-08-01 19:58:18.592290,6121.03030242,3169.2121209,4850.66666618,2221.33333311,4873.33333285,2171.87878766,5303.99999947,4195.39393897,5770.72727215,3935.75757536,5941.24242365,3960.48484809,5680.57575701,2649.93939367,5906.72727214,2402.66666643,6546.03030238,2513.93939369,5797.51515094,3688.48484812,5690.87878731,2155.39393918,5784.63636306,3037.33333303,6061.27272667,910.787878697,5662.54545398,3729.69696932,42.0,42.0,?
2017-08-01 19:58:18.601965,6136.48484787,3169.2121209,4923.81818133,2221.33333311,4946.99999951,2171.87878766,5316.36363583,4195.39393897,5775.36363579,3935.75757536,5946.3939388,3960.48484809,5709.93939337,2649.93939367,5930.93939335,2402.66666643,6580.03030237,2513.93939369,5801.63636306,3688.48484812,5711.48484791,2155.39393918,5798.54545397,3037.33333303,6088.57575697,910.787878697,5658.42424186,3729.69696932,42.0,42.0,?
2017-08-01 19:58:18.607377,6011.3030297,3169.2121209,4678.60606014,2221.33333311,4695.60606014,2171.87878766,5085.57575707,4195.39393897,5582.69696914,3935.75757536,5777.42424185,3960.48484809,5526.54545399,2649.93939367,5751.15151458,2402.66666643,6453.81818117,2513.93939369,5631.63636307,3688.48484812,5591.96969641,2155.39393918,5633.69696913,3037.33333303,6032.93939334,910.787878697,5470.39393885,3729.69696932,42.0,42.0,?
2017-08-01 19:58:18.615481,6437.8484842,3169.2121209,5235.48484796,2221.33333311,5254.54545402,2171.87878766,5716.12121155,4195.39393897,6144.72727211,3935.75757536,6300.30302967,3960.48484809,6025.72727212,2649.93939367,6228.69696907,2402.66666643,6788.15151447,2513.93939369,6176.66666605,3688.48484812,6022.63636303,2155.39393918,6153.48484787,3037.33333303,6278.15151452,910.787878697,6042.21212061,3729.69696932,42.0,42.0,?
2017-08-01 19:58:18.622435,7470.21212047,3169.2121209,6804.63636296,2221.33333311,6891.69696901,2171.87878766,7256.93939321,4195.39393897,7425.90909017,3935.75757536,7475.36363562,3960.48484809,7319.78787806,2649.93939367,7424.36363562,2402.66666643,7596.93939318,2513.93939369,7418.18181744,3688.48484812,7249.21212049,2155.39393918,7398.60605987,3037.33333303,7275.48484776,910.787878697,7382.12121138,3729.69696932,42.0,42.0,?
2017-08-01 19:58:18.632804,7988.96969617,3169.2121209,7484.12121137,2221.33333311,7726.24242347,2171.87878766,8037.39393859,4195.39393897,8007.51515071,3935.75757536,8002.36363556,3960.48484809,8008.03030223,2649.93939367,7999.27272647,2402.66666643,7941.06060527,2513.93939369,7999.78787799,3688.48484812,8019.87878708,2155.39393918,8005.45454465,3037.33333303,8027.6060598,910.787878697,8016.78787799,3729.69696932,42.0,42.0,?
2017-08-01 19:58:18.638223,7825.66666588,3169.2121209,7029.75757505,2221.33333311,7436.72727198,2171.87878766,7845.75757497,4195.39393897,7819.99999922,3935.75757536,7821.54545376,3960.48484809,7846.787878,2649.93939367,7827.21212043,2402.66666643,7809.69696892,2513.93939369,7828.75757497,3688.48484812,7852.45454467,2155.39393918,7827.72727194,3037.33333303,7849.36363558,910.787878697,7825.15151437,3729.69696932,42.0,42.0,?
2017-08-01 19:58:18.651266,7796.30302952,3169.2121209,6913.33333264,2221.33333311,7437.2424235,2171.87878766,7808.15151437,4195.39393897,7804.54545377,3935.75757536,7809.1818174,3960.48484809,7802.4848477,2649.93939367,7801.45454467,2402.66666643,7809.1818174,2513.93939369,7808.15151437,3688.48484812,7776.72727195,2155.39393918,7801.96969619,3037.33333303,7760.24242347,910.787878697,7805.06060528,3729.69696932,42.0,42.0,?
2017-08-01 19:58:18.653371,7890.06060527,3169.2121209,7035.93939324,2221.33333311,7653.60605984,2171.87878766,7932.30302951,4195.39393897,7905.51515072,3935.75757536,7901.90909012,3960.48484809,7912.21212042,2649.93939367,7897.27272648,2402.66666643,7870.99999921,2513.93939369,7903.45454466,3688.48484812,7914.27272648,2155.39393918,7904.99999921,3037.33333303,7902.42424163,910.787878697,7911.69696891,3729.69696932,42.0,42.0,?
2017-08-01 19:58:18.660912,7828.75757497,3169.2121209,6805.66666599,2221.33333311,7505.24242349,2171.87878766,7848.33333255,4195.39393897,7833.39393861,3935.75757536,7833.39393861,3960.48484809,7846.787878,2649.93939367,7833.39393861,2402.66666643,7822.06060528,2513.93939369,7834.42424164,3688.48484812,7844.21212043,2155.39393918,7834.93939316,3037.33333303,7836.99999922,910.787878697,7837.51515073,3729.69696932,42.0,42.0,?
2017-08-01 19:58:18.672594,7796.30302952,3169.2121209,6625.87878722,2221.33333311,7376.45454472,2171.87878766,7796.30302952,4195.39393897,7795.78787801,3935.75757536,7800.93939316,3960.48484809,7802.4848477,2649.93939367,7798.36363558,2402.66666643,7801.96969619,2513.93939369,7797.84848407,3688.48484812,7785.99999922,2155.39393918,7795.78787801,3037.33333303,7794.75757498,910.787878697,7797.84848407,3729.69696932,42.0,42.0,?
2017-08-01 19:58:18.677687,7799.90909013,3169.2121209,6527.99999935,2221.33333311,7316.18181745,2171.87878766,7797.84848407,4195.39393897,7798.8787871,3935.75757536,7803.51515073,3960.48484809,7804.54545377,2649.93939367,7804.03030225,2402.66666643,7804.03030225,2513.93939369,7800.93939316,3688.48484812,7787.03030225,2155.39393918,7801.45454467,3037.33333303,7794.24242346,910.787878697,7799.90909013,3729.69696932,42.0,42.0,?
2017-08-01 19:58:18.684138,7802.4848477,3169.2121209,6500.69696905,2221.33333311,7314.12121139,2171.87878766,7800.93939316,4195.39393897,7800.42424164,3935.75757536,7803.51515073,3960.48484809,7806.60605983,2649.93939367,7804.54545377,2402.66666643,7804.03030225,2513.93939369,7800.42424164,3688.48484812,7801.45454467,2155.39393918,7801.45454467,3037.33333303,7800.93939316,910.787878697,7801.45454467,3729.69696932,42.0,42.0,?
2017-08-01 19:58:18.693040,7799.90909013,3169.2121209,6592.39393873,2221.33333311,7420.75757502,2171.87878766,7802.4848477,4195.39393897,7799.90909013,3935.75757536,7803.51515073,3960.48484809,7805.5757568,2649.93939367,7802.99999922,2402.66666643,7802.99999922,2513.93939369,7799.39393861,3688.48484812,7804.54545377,2155.39393918,7799.90909013,3037.33333303,7802.99999922,910.787878697,7799.90909013,3729.69696932,42.0,42.0,?
2017-08-01 19:58:18.700713,7799.39393861,3169.2121209,6491.42424178,2221.33333311,7349.66666593,2171.87878766,7800.42424164,4195.39393897,7798.8787871,3935.75757536,7804.54545377,3960.48484809,7807.12121134,2649.93939367,7804.54545377,2402.66666643,7803.51515073,2513.93939369,7800.42424164,3688.48484812,7798.36363558,2155.39393918,7801.96969619,3037.33333303,7799.39393861,910.787878697,7798.8787871,3729.69696932,42.0,42.0,?
2017-08-01 19:58:18.708014,7798.8787871,3169.2121209,6373.96969633,2221.33333311,7251.78787806,2171.87878766,7786.51515074,4195.39393897,7796.30302952,3935.75757536,7801.96969619,3960.48484809,7802.4848477,2649.93939367,7801.96969619,2402.66666643,7803.51515073,2513.93939369,7798.8787871,3688.48484812,7791.66666589,2155.39393918,7798.8787871,3037.33333303,7797.84848407,910.787878697,7795.27272649,3729.69696932,42.0,42.0,?
2017-08-01 19:58:18.715776,7801.96969619,3169.2121209,6500.69696905,2221.33333311,7388.30302956,2171.87878766,7801.45454467,4195.39393897,7802.99999922,3935.75757536,7806.09090831,3960.48484809,7802.99999922,2649.93939367,7804.54545377,2402.66666643,7805.06060528,2513.93939369,7801.96969619,3688.48484812,7809.1818174,2155.39393918,7800.42424164,3037.33333303,7808.15151437,910.787878697,7798.36363558,3729.69696932,42.0,42.0,?
2017-08-01 19:58:18.722616,7798.8787871,3169.2121209,6524.39393874,2221.33333311,7434.15151441,2171.87878766,7797.84848407,4195.39393897,7796.81818104,3935.75757536,7800.93939316,3960.48484809,7795.27272649,2649.93939367,7802.4848477,2402.66666643,7801.96969619,2513.93939369,7799.39393861,3688.48484812,7785.99999922,2155.39393918,7799.39393861,3037.33333303,7783.42424165,910.787878697,7797.84848407,3729.69696932,42.0,42.0,?
2017-08-01 19:58:18.731331,7791.15151437,3169.2121209,6210.15151453,2221.33333311,7113.72727202,2171.87878766,7713.87878711,4195.39393897,7773.12121134,3935.75757536,7781.8787871,3960.48484809,7769.51515074,2649.93939367,7791.15151437,2402.66666643,7794.24242346,2513.93939369,7786.51515074,3688.48484812,7717.48484771,2155.39393918,7790.63636286,3037.33333303,7749.93939316,910.787878697,7788.06060528,3729.69696932,42.0,42.0,?
2017-08-01 19:58:18.739767,7793.21212043,3169.2121209,5864.99999941,2221.33333311,6831.42424174,2171.87878766,7676.27272651,4195.39393897,7773.12121134,3935.75757536,7778.78787801,3960.48484809,7764.36363559,2649.93939367,7787.54545377,2402.66666643,7793.21212043,2513.93939369,7784.96969619,3688.48484812,7708.21212044,2155.39393918,7787.03030225,3037.33333303,7756.63636286,910.787878697,7788.5757568,3729.69696932,42.0,42.0,?
2017-08-01 19:58:18.747398,7800.42424164,3169.2121209,6173.06060544,2221.33333311,7064.27272657,2171.87878766,7755.09090832,4195.39393897,7797.84848407,3935.75757536,7797.84848407,3960.48484809,7791.15151437,2649.93939367,7796.30302952,2402.66666643,7799.90909013,2513.93939369,7798.8787871,3688.48484812,7763.84848407,2155.39393918,7795.78787801,3037.33333303,7774.66666589,910.787878697,7799.90909013,3729.69696932,42.0,42.0,?
2017-08-01 19:58:18.753779,7800.42424164,3169.2121209,7061.69696899,2221.33333311,7563.4545447,2171.87878766,7811.75757498,4195.39393897,7804.54545377,3935.75757536,7807.12121134,3960.48484809,7805.5757568,2649.93939367,7802.4848477,2402.66666643,7801.45454467,2513.93939369,7805.5757568,3688.48484812,7794.75757498,2155.39393918,7802.99999922,3037.33333303,7779.81818104,910.787878697,7802.99999922,3729.69696932,42.0,42.0,?
2017-08-01 19:58:18.764026,7798.8787871,3169.2121209,7476.39393865,2221.33333311,7822.57575679,2171.87878766,7795.78787801,4195.39393897,7796.81818104,3935.75757536,7802.99999922,3960.48484809,7800.93939316,2649.93939367,7805.06060528,2402.66666643,7798.36363558,2513.93939369,7802.4848477,3688.48484812,7796.81818104,2155.39393918,7802.99999922,3037.33333303,7796.30302952,910.787878697,7797.84848407,3729.69696932,42.0,42.0,?
2017-08-01 19:58:18.770289,7800.42424164,3169.2121209,7322.87878715,2221.33333311,7811.75757498,2171.87878766,7795.27272649,4195.39393897,7799.39393861,3935.75757536,7802.99999922,3960.48484809,7803.51515073,2649.93939367,7804.54545377,2402.66666643,7799.39393861,2513.93939369,7802.4848477,3688.48484812,7806.09090831,2155.39393918,7804.03030225,3037.33333303,7810.21212043,910.787878697,7798.8787871,3729.69696932,42.0,42.0,?
2017-08-01 19:58:18.777567,7799.90909013,3169.2121209,7474.8484841,2221.33333311,7797.84848407,2171.87878766,7808.15151437,4195.39393897,7802.99999922,3935.75757536,7804.54545377,3960.48484809,7807.12121134,2649.93939367,7798.8787871,2402.66666643,7801.45454467,2513.93939369,7804.54545377,3688.48484812,7806.60605983,2155.39393918,7804.03030225,3037.33333303,7803.51515073,910.787878697,7800.93939316,3729.69696932,42.0,42.0,?
2017-08-01 19:58:18.793069,7799.39393861,3169.2121209,7805.06060528,2221.33333311,7836.99999922,2171.87878766,7802.4848477,4195.39393897,7799.39393861,3935.75757536,7803.51515073,3960.48484809,7802.99999922,2649.93939367,7796.30302952,2402.66666643,7800.42424164,2513.93939369,7805.06060528,3688.48484812,7804.54545377,2155.39393918,7803.51515073,3037.33333303,7802.99999922,910.787878697,7800.42424164,3729.69696932,42.0,42.0,?
2017-08-01 19:58:18.795117,7800.93939316,3169.2121209,7694.30302953,2221.33333311,7822.57575679,2171.87878766,7799.90909013,4195.39393897,7799.90909013,3935.75757536,7804.54545377,3960.48484809,7802.99999922,2649.93939367,7798.8787871,2402.66666643,7800.42424164,2513.93939369,7800.93939316,3688.48484812,7806.60605983,2155.39393918,7803.51515073,3037.33333303,7806.60605983,910.787878697,7799.90909013,3729.69696932,42.0,42.0,?
2017-08-01 19:58:18.801359,7800.42424164,3169.2121209,7526.87878713,2221.33333311,7798.8787871,2171.87878766,7797.33333255,4195.39393897,7803.51515073,3935.75757536,7804.03030225,3960.48484809,7804.03030225,2649.93939367,7799.90909013,2402.66666643,7800.42424164,2513.93939369,7796.30302952,3688.48484812,7802.99999922,2155.39393918,7802.99999922,3037.33333303,7804.03030225,910.787878697,7799.39393861,3729.69696932,42.0,42.0,?
2017-08-01 19:58:18.808611,7800.42424164,3169.2121209,7649.48484772,2221.33333311,7801.96969619,2171.87878766,7796.81818104,4195.39393897,7801.96969619,3935.75757536,7804.03030225,3960.48484809,7804.03030225,2649.93939367,7797.33333255,2402.66666643,7800.42424164,2513.93939369,7799.39393861,3688.48484812,7802.99999922,2155.39393918,7802.99999922,3037.33333303,7804.03030225,910.787878697,7799.39393861,3729.69696932,42.0,42.0,?
2017-08-01 19:58:18.818450,7800.42424164,3169.2121209,7628.87878712,2221.33333311,7798.8787871,2171.87878766,7797.84848407,4195.39393897,7798.36363558,3935.75757536,7804.03030225,3960.48484809,7804.03030225,2649.93939367,7798.36363558,2402.66666643,7800.42424164,2513.93939369,7804.54545377,3688.48484812,7804.03030225,2155.39393918,7802.99999922,3037.33333303,7802.4848477,910.787878697,7799.39393861,3729.69696932,42.0,42.0,?
2017-08-01 19:58:18.826270,7800.42424164,3169.2121209,7452.18181744,2221.33333311,7799.90909013,2171.87878766,7797.33333255,4195.39393897,7797.84848407,3935.75757536,7804.03030225,3960.48484809,7804.03030225,2649.93939367,7800.42424164,2402.66666643,7800.42424164,2513.93939369,7804.54545377,3688.48484812,7801.96969619,2155.39393918,7802.99999922,3037.33333303,7804.03030225,910.787878697,7799.39393861,3729.69696932,42.0,42.0,?
2017-08-01 19:58:18.834102,7800.42424164,3169.2121209,7491.33333258,2221.33333311,7800.93939316,2171.87878766,7797.33333255,4195.39393897,7799.39393861,3935.75757536,7804.03030225,3960.48484809,7804.03030225,2649.93939367,7801.45454467,2402.66666643,7800.42424164,2513.93939369,7803.51515073,3688.48484812,7798.8787871,2155.39393918,7802.99999922,3037.33333303,7804.54545377,910.787878697,7799.39393861,3729.69696932,42.0,42.0,?
2017-08-01 19:58:18.840802,7800.42424164,3169.2121209,7748.39393862,2221.33333311,7800.42424164,2171.87878766,7797.33333255,4195.39393897,7798.8787871,3935.75757536,7804.03030225,3960.48484809,7804.03030225,2649.93939367,7799.90909013,2402.66666643,7800.42424164,2513.93939369,7804.54545377,3688.48484812,7797.84848407,2155.39393918,7802.99999922,3037.33333303,7803.51515073,910.787878697,7799.39393861,3729.69696932,42.0,42.0,?
2017-08-01 19:58:18.849704,7800.42424164,3169.2121209,7829.27272649,2221.33333311,7800.42424164,2171.87878766,7797.33333255,4195.39393897,7797.84848407,3935.75757536,7804.03030225,3960.48484809,7804.03030225,2649.93939367,7798.8787871,2402.66666643,7800.42424164,2513.93939369,7804.54545377,3688.48484812,7799.90909013,2155.39393918,7802.99999922,3037.33333303,7804.03030225,910.787878697,7799.39393861,3729.69696932,42.0,42.0,?
2017-08-01 19:58:18.856341,7800.42424164,3169.2121209,7686.06060529,2221.33333311,7800.42424164,2171.87878766,7797.33333255,4195.39393897,7797.84848407,3935.75757536,7804.03030225,3960.48484809,7804.03030225,2649.93939367,7800.42424164,2402.66666643,7800.42424164,2513.93939369,7804.03030225,3688.48484812,7799.90909013,2155.39393918,7802.99999922,3037.33333303,7804.03030225,910.787878697,7799.39393861,3729.69696932,42.0,42.0,?
2017-08-01 19:58:18.864418,7800.42424164,3169.2121209,7664.42424166,2221.33333311,7800.42424164,2171.87878766,7797.33333255,4195.39393897,7797.84848407,3935.75757536,7804.03030225,3960.48484809,7804.03030225,2649.93939367,7800.93939316,2402.66666643,7800.42424164,2513.93939369,7804.03030225,3688.48484812,7798.36363558,2155.39393918,7802.99999922,3037.33333303,7804.03030225,910.787878697,7799.39393861,3729.69696932,42.0,42.0,?
2017-08-01 19:58:18.873663,7800.42424164,3169.2121209,7777.75757498,2221.33333311,7800.42424164,2171.87878766,7797.33333255,4195.39393897,7798.8787871,3935.75757536,7804.03030225,3960.48484809,7803.51515073,2649.93939367,7800.42424164,2402.66666643,7800.42424164,2513.93939369,7804.03030225,3688.48484812,7799.90909013,2155.39393918,7803.51515073,3037.33333303,7804.03030225,910.787878697,7799.39393861,3729.69696932,42.0,42.0,?
2017-08-01 19:58:18.879584,7800.42424164,3169.2121209,7818.45454467,2221.33333311,7800.42424164,2171.87878766,7797.33333255,4195.39393897,7798.8787871,3935.75757536,7804.03030225,3960.48484809,7804.54545377,2649.93939367,7800.42424164,2402.66666643,7800.42424164,2513.93939369,7804.03030225,3688.48484812,7804.03030225,2155.39393918,7802.99999922,3037.33333303,7804.03030225,910.787878697,7799.39393861,3729.69696932,42.0,42.0,?
2017-08-01 19:58:18.886755,7800.42424164,1487.75757561,7767.96969619,2221.33333311,7800.42424164,2171.87878766,7797.33333255,4195.39393897,7799.90909013,3935.75757536,7804.03030225,3960.48484809,7804.54545377,2649.93939367,7800.42424164,2402.66666643,7800.42424164,2513.93939369,7804.03030225,3688.48484812,7804.54545377,2155.39393918,7802.99999922,3037.33333303,7804.03030225,910.787878697,7799.39393861,3729.69696932,42.0,42.0,?
2017-08-01 19:58:18.895606,7800.42424164,1487.75757561,7749.93939316,70.0606060536,7800.42424164,2171.87878766,7797.33333255,4195.39393897,7799.39393861,3935.75757536,7804.03030225,3960.48484809,7800.93939316,2649.93939367,7800.42424164,2402.66666643,7800.42424164,2513.93939369,7804.03030225,3688.48484812,7802.99999922,2155.39393918,7804.03030225,3037.33333303,7804.03030225,910.787878697,7799.39393861,3729.69696932,42.0,42.0,?
2017-08-01 19:58:18.905252,7800.42424164,1487.75757561,7794.24242346,70.0606060536,7800.42424164,2171.87878766,7797.33333255,4195.39393897,7798.8787871,3935.75757536,7804.03030225,3960.48484809,7797.84848407,2649.93939367,7800.42424164,2402.66666643,7800.42424164,2513.93939369,7804.03030225,3688.48484812,7803.51515073,2155.39393918,7801.96969619,3037.33333303,7804.03030225,910.787878697,7799.39393861,1388.84848471,42.0,42.0,?
